TimeStamp,Delta_TP9,Delta_AF7,Delta_AF8,Delta_TP10,Theta_TP9,Theta_AF7,Theta_AF8,Theta_TP10,Alpha_TP9,Alpha_AF7,Alpha_AF8,Alpha_TP10,Beta_TP9,Beta_AF7,Beta_AF8,Beta_TP10,Gamma_TP9,Gamma_AF7,Gamma_AF8,Gamma_TP10,RAW_TP9,RAW_AF7,RAW_AF8,RAW_TP10,AUX_RIGHT,Accelerometer_X,Accelerometer_Y,Accelerometer_Z,Gyro_X,Gyro_Y,Gyro_Z,HeadBandOn,HSI_TP9,HSI_AF7,HSI_AF8,HSI_TP10,Battery,Elements
2019-06-12 12:46:19.961,0.1213386,0.10311059,0.6514244,-0.18446276,-0.49127382,-0.0050042295,0.30716982,-0.47076356,0.20141765,0.203191,0.43991473,0.2902032,0.32310376,0.7820612,0.7364175,0.6150238,-0.15665619,0.53015655,0.61367685,0.09929214,658.7912,880.40295,884.83514,584.2491,718.4249,0.017578125,-0.061279296875,0.98773193359375,0.037384033203125,2.340240478515625,3.42437744140625,1,1.0,1.0,1.0,1.0,85.53
2019-06-12 12:46:19.963,0.1213386,0.10311059,0.6514244,-0.18446276,-0.49127382,-0.0050042295,0.30716982,-0.47076356,0.20141765,0.203191,0.43991473,0.2902032,0.32310376,0.7820612,0.7364175,0.6150238,-0.15665619,0.53015655,0.61367685,0.09929214,647.9121,875.9707,864.2857,462.96704,523.8095,0.017578125,-0.061279296875,0.98773193359375,0.037384033203125,2.340240478515625,3.42437744140625,1,1.0,1.0,1.0,1.0,85.53
2019-06-12 12:46:19.965,0.1213386,0.10311059,0.6514244,-0.18446276,-0.49127382,-0.0050042295,0.30716982,-0.47076356,0.20141765,0.203191,0.43991473,0.2902032,0.32310376,0.7820612,0.7364175,0.6150238,-0.15665619,0.53015655,0.61367685,0.09929214,963.00366,827.619,817.5458,973.0769,799.011,0.017578125,-0.061279296875,0.98773193359375,0.037384033203125,2.340240478515625,3.42437744140625,1,1.0,1.0,1.0,1.0,85.53
2019-06-12 12:46:19.967,0.21813068,0.08245396,0.72228247,-0.12329672,-0.4988413,-0.03269369,0.34732717,-0.4905122,0.23729713,0.203191,0.42808953,0.29567525,0.34873682,0.7668102,0.7560149,0.5944018,-0.14242549,0.5125145,0.63689494,0.11128373,1071.392,830.4396,827.619,1261.1721,1124.9817,0.017578125,-0.061279296875,0.98773193359375,0.037384033203125,2.340240478515625,3.42437744140625,1,1.0,1.0,1.0,1.0,85.53
2019-06-12 12:46:19.974,0.21813068,0.08245396,0.72228247,-0.12329672,-0.4988413,-0.03269369,0.34732717,-0.4905122,0.23729713,0.203191,0.42808953,0.29567525,0.34873682,0.7668102,0.7560149,0.5944018,-0.14242549,0.5125145,0.63689494,0.11128373,744.61536,880.80585,885.64105,731.7216,860.2564,0.017578125,-0.061279296875,0.98773193359375,0.037384033203125,2.340240478515625,3.42437744140625,1,1.0,1.0,1.0,1.0,85.53
2019-06-12 12:46:19.976,0.21813068,0.08245396,0.72228247,-0.12329672,-0.4988413,-0.03269369,0.34732717,-0.4905122,0.23729713,0.203191,0.42808953,0.29567525,0.34873682,0.7668102,0.7560149,0.5944018,-0.14242549,0.5125145,0.63689494,0.11128373,626.9597,874.7619,882.4176,427.91208,523.4066,0.017578125,-0.061279296875,0.98773193359375,0.037384033203125,2.340240478515625,3.42437744140625,1,1.0,1.0,1.0,1.0,85.53
2019-06-12 12:46:19.977,0.21813068,0.08245396,0.72228247,-0.12329672,-0.4988413,-0.03269369,0.34732717,-0.4905122,0.23729713,0.203191,0.42808953,0.29567525,0.34873682,0.7668102,0.7560149,0.5944018,-0.14242549,0.5125145,0.63689494,0.11128373,872.74725,830.0366,832.4542,808.68134,678.1319,0.017578125,-0.061279296875,0.98773193359375,0.037384033203125,2.340240478515625,3.42437744140625,1,1.0,1.0,1.0,1.0,85.53
2019-06-12 12:46:19.979,0.21813068,0.08245396,0.72228247,-0.12329672,-0.4988413,-0.03269369,0.34732717,-0.4905122,0.23729713,0.203191,0.42808953,0.29567525,0.34873682,0.7668102,0.7560149,0.5944018,-0.14242549,0.5125145,0.63689494,0.11128373,1094.359,812.71063,820.3663,1279.3041,1073.0037,0.017578125,-0.061279296875,0.98773193359375,0.037384033203125,2.340240478515625,3.42437744140625,1,1.0,1.0,1.0,1.0,85.53
2019-06-12 12:46:19.980,0.21813068,0.08245396,0.72228247,-0.12329672,-0.4988413,-0.03269369,0.34732717,-0.4905122,0.23729713,0.203191,0.42808953,0.29567525,0.34873682,0.7668102,0.7560149,0.5944018,-0.14242549,0.5125145,0.63689494,0.11128373,840.10986,861.8681,871.13556,908.60803,943.663,0.017578125,-0.061279296875,0.98773193359375,0.037384033203125,2.340240478515625,3.42437744140625,1,1.0,1.0,1.0,1.0,85.53
2019-06-12 12:46:19.982,0.21813068,0.08245396,0.72228247,-0.12329672,-0.4988413,-0.03269369,0.34732717,-0.4905122,0.23729713,0.203191,0.42808953,0.29567525,0.34873682,0.7668102,0.7560149,0.5944018,-0.14242549,0.5125145,0.63689494,0.11128373,611.6484,879.59705,880.40295,442.82053,533.8828,0.017578125,-0.061279296875,0.98773193359375,0.037384033203125,2.340240478515625,3.42437744140625,1,1.0,1.0,1.0,1.0,85.53
2019-06-12 12:46:19.984,0.21813068,0.08245396,0.72228247,-0.12329672,-0.4988413,-0.03269369,0.34732717,-0.4905122,0.23729713,0.203191,0.42808953,0.29567525,0.34873682,0.7668102,0.7560149,0.5944018,-0.14242549,0.5125145,0.63689494,0.11128373,776.4469,845.7509,838.0952,658.3883,550.80585,0.017578125,-0.061279296875,0.98773193359375,0.037384033203125,2.340240478515625,3.42437744140625,1,1.0,1.0,1.0,1.0,85.53
2019-06-12 12:46:19.985,0.21813068,0.08245396,0.72228247,-0.12329672,-0.4988413,-0.03269369,0.34732717,-0.4905122,0.23729713,0.203191,0.42808953,0.29567525,0.34873682,0.7668102,0.7560149,0.5944018,-0.14242549,0.5125145,0.63689494,0.11128373,1085.8975,822.381,813.91943,1224.5055,965.42126,0.017578125,-0.061279296875,0.98773193359375,0.037384033203125,2.340240478515625,3.42437744140625,1,1.0,1.0,1.0,1.0,85.53
2019-06-12 12:46:19.988,0.21813068,0.08245396,0.72228247,-0.12329672,-0.4988413,-0.03269369,0.34732717,-0.4905122,0.23729713,0.203191,0.42808953,0.29567525,0.34873682,0.7668102,0.7560149,0.5944018,-0.14242549,0.5125145,0.63689494,0.11128373,933.9927,855.0183,851.79486,1065.751,1031.5018,0.00897216796875,-0.064453125,0.98907470703125,-0.299072265625,2.998199462890625,3.3197021484375,1,1.0,1.0,1.0,1.0,85.53
2019-06-12 12:46:19.989,0.21813068,0.08245396,0.72228247,-0.12329672,-0.4988413,-0.03269369,0.34732717,-0.4905122,0.23729713,0.203191,0.42808953,0.29567525,0.34873682,0.7668102,0.7560149,0.5944018,-0.14242549,0.5125145,0.63689494,0.11128373,618.0952,884.83514,880.80585,485.53113,628.5714,0.00897216796875,-0.064453125,0.98907470703125,-0.299072265625,2.998199462890625,3.3197021484375,1,1.0,1.0,1.0,1.0,85.53
2019-06-12 12:46:19.991,0.21813068,0.08245396,0.72228247,-0.12329672,-0.4988413,-0.03269369,0.34732717,-0.4905122,0.23729713,0.203191,0.42808953,0.29567525,0.34873682,0.7668102,0.7560149,0.5944018,-0.14242549,0.5125145,0.63689494,0.11128373,697.8755,861.8681,861.06226,527.03296,514.1392,0.00897216796875,-0.064453125,0.98907470703125,-0.299072265625,2.998199462890625,3.3197021484375,1,1.0,1.0,1.0,1.0,85.53
2019-06-12 12:46:19.992,0.21813068,0.08245396,0.72228247,-0.12329672,-0.4988413,-0.03269369,0.34732717,-0.4905122,0.23729713,0.203191,0.42808953,0.29567525,0.34873682,0.7668102,0.7560149,0.5944018,-0.14242549,0.5125145,0.63689494,0.11128373,1019.81683,813.91943,828.8278,1088.3151,890.4762,0.00897216796875,-0.064453125,0.98907470703125,-0.299072265625,2.998199462890625,3.3197021484375,1,1.0,1.0,1.0,1.0,85.53
2019-06-12 12:46:19.994,0.21813068,0.08245396,0.72228247,-0.12329672,-0.4988413,-0.03269369,0.34732717,-0.4905122,0.23729713,0.203191,0.42808953,0.29567525,0.34873682,0.7668102,0.7560149,0.5944018,-0.14242549,0.5125145,0.63689494,0.11128373,1018.20514,831.6484,850.58606,1178.9744,1069.7803,0.00897216796875,-0.064453125,0.98907470703125,-0.299072265625,2.998199462890625,3.3197021484375,1,1.0,1.0,1.0,1.0,85.53
2019-06-12 12:46:19.996,0.21813068,0.08245396,0.72228247,-0.12329672,-0.4988413,-0.03269369,0.34732717,-0.4905122,0.23729713,0.203191,0.42808953,0.29567525,0.34873682,0.7668102,0.7560149,0.5944018,-0.14242549,0.5125145,0.63689494,0.11128373,674.90845,877.98535,882.8205,600.7692,707.9487,0.00897216796875,-0.064453125,0.98907470703125,-0.299072265625,2.998199462890625,3.3197021484375,1,1.0,1.0,1.0,1.0,85.53
2019-06-12 12:46:19.997,0.21813068,0.08245396,0.72228247,-0.12329672,-0.4988413,-0.03269369,0.34732717,-0.4905122,0.23729713,0.203191,0.42808953,0.29567525,0.34873682,0.7668102,0.7560149,0.5944018,-0.14242549,0.5125145,0.63689494,0.11128373,632.1978,868.315,861.06226,452.49084,489.96338,0.00897216796875,-0.064453125,0.98907470703125,-0.299072265625,2.998199462890625,3.3197021484375,1,1.0,1.0,1.0,1.0,85.53
2019-06-12 12:46:19.999,0.21813068,0.08245396,0.72228247,-0.12329672,-0.4988413,-0.03269369,0.34732717,-0.4905122,0.23729713,0.203191,0.42808953,0.29567525,0.34873682,0.7668102,0.7560149,0.5944018,-0.14242549,0.5125145,0.63689494,0.11128373,928.7546,832.0513,821.978,934.3956,732.9304,0.00897216796875,-0.064453125,0.98907470703125,-0.299072265625,2.998199462890625,3.3197021484375,1,1.0,1.0,1.0,1.0,85.53
2019-06-12 12:46:20.001,0.21813068,0.08245396,0.72228247,-0.12329672,-0.4988413,-0.03269369,0.34732717,-0.4905122,0.23729713,0.203191,0.42808953,0.29567525,0.34873682,0.7668102,0.7560149,0.5944018,-0.14242549,0.5125145,0.63689494,0.11128373,1061.7216,839.707,826.0073,1257.1428,1076.227,0.00897216796875,-0.064453125,0.98907470703125,-0.299072265625,2.998199462890625,3.3197021484375,1,1.0,1.0,1.0,1.0,85.53
2019-06-12 12:46:20.003,0.21813068,0.08245396,0.72228247,-0.12329672,-0.4988413,-0.03269369,0.34732717,-0.4905122,0.23729713,0.203191,0.42808953,0.29567525,0.34873682,0.7668102,0.7560149,0.5944018,-0.14242549,0.5125145,0.63689494,0.11128373,749.85345,881.2088,868.315,767.1795,853.4066,0.00897216796875,-0.064453125,0.98907470703125,-0.299072265625,2.998199462890625,3.3197021484375,1,1.0,1.0,1.0,1.0,85.53
2019-06-12 12:46:20.005,0.21813068,0.08245396,0.72228247,-0.12329672,-0.4988413,-0.03269369,0.34732717,-0.4905122,0.23729713,0.203191,0.42808953,0.29567525,0.34873682,0.7668102,0.7560149,0.5944018,-0.14242549,0.5125145,0.63689494,0.11128373,610.84247,870.7326,867.9121,443.22345,512.1245,0.00897216796875,-0.064453125,0.98907470703125,-0.299072265625,2.998199462890625,3.3197021484375,1,1.0,1.0,1.0,1.0,85.53
2019-06-12 12:46:20.006,0.21813068,0.08245396,0.72228247,-0.12329672,-0.4988413,-0.03269369,0.34732717,-0.4905122,0.23729713,0.203191,0.42808953,0.29567525,0.34873682,0.7668102,0.7560149,0.5944018,-0.14242549,0.5125145,0.63689494,0.11128373,842.9304,836.4835,836.4835,782.8938,635.82416,0.00897216796875,-0.064453125,0.98907470703125,-0.299072265625,2.998199462890625,3.3197021484375,1,1.0,1.0,1.0,1.0,85.53
2019-06-12 12:46:20.008,0.21813068,0.08245396,0.72228247,-0.12329672,-0.4988413,-0.03269369,0.34732717,-0.4905122,0.23729713,0.203191,0.42808953,0.29567525,0.34873682,0.7668102,0.7560149,0.5944018,-0.14242549,0.5125145,0.63689494,0.11128373,1081.0623,824.3956,826.8132,1251.0989,1023.0403,0.01568603515625,-0.060546875,0.9879150390625,-0.43365478515625,1.921539306640625,1.936492919921875,1,1.0,1.0,1.0,1.0,85.53
2019-06-12 12:46:20.010,0.21813068,0.08245396,0.72228247,-0.12329672,-0.4988413,-0.03269369,0.34732717,-0.4905122,0.23729713,0.203191,0.42808953,0.29567525,0.34873682,0.7668102,0.7560149,0.5944018,-0.14242549,0.5125145,0.63689494,0.11128373,850.58606,858.6447,866.7033,927.1429,947.28937,0.01568603515625,-0.060546875,0.9879150390625,-0.43365478515625,1.921539306640625,1.936492919921875,1,1.0,1.0,1.0,1.0,85.53
2019-06-12 12:46:20.012,0.21813068,0.08245396,0.72228247,-0.12329672,-0.4988413,-0.03269369,0.34732717,-0.4905122,0.23729713,0.203191,0.42808953,0.29567525,0.34873682,0.7668102,0.7560149,0.5944018,-0.14242549,0.5125145,0.63689494,0.11128373,614.87177,869.12085,882.8205,456.11722,582.6374,0.01568603515625,-0.060546875,0.9879150390625,-0.43365478515625,1.921539306640625,1.936492919921875,1,1.0,1.0,1.0,1.0,85.53
2019-06-12 12:46:20.013,0.21813068,0.08245396,0.72228247,-0.12329672,-0.4988413,-0.03269369,0.34732717,-0.4905122,0.23729713,0.203191,0.42808953,0.29567525,0.34873682,0.7668102,0.7560149,0.5944018,-0.14242549,0.5125145,0.63689494,0.11128373,762.3443,850.18317,856.2271,636.63007,554.43225,0.01568603515625,-0.060546875,0.9879150390625,-0.43365478515625,1.921539306640625,1.936492919921875,1,1.0,1.0,1.0,1.0,85.53
2019-06-12 12:46:20.015,0.21813068,0.08245396,0.72228247,-0.12329672,-0.4988413,-0.03269369,0.34732717,-0.4905122,0.23729713,0.203191,0.42808953,0.29567525,0.34873682,0.7668102,0.7560149,0.5944018,-0.14242549,0.5125145,0.63689494,0.11128373,1071.392,826.0073,834.4689,1188.6447,911.4286,0.01568603515625,-0.060546875,0.9879150390625,-0.43365478515625,1.921539306640625,1.936492919921875,1,1.0,1.0,1.0,1.0,85.53
2019-06-12 12:46:20.017,0.27755928,0.010083744,0.72228247,-0.064740755,-0.50924325,-0.10688515,0.34732717,-0.48383293,0.30629402,0.08069109,0.42808953,0.29567525,0.36394444,0.7023849,0.7560149,0.5814071,-0.11036346,0.40731463,0.63689494,0.1485169,956.1539,848.5714,857.03296,1087.1062,1000.4762,0.01568603515625,-0.060546875,0.9879150390625,-0.43365478515625,1.921539306640625,1.936492919921875,1,1.0,1.0,1.0,1.0,85.53
2019-06-12 12:46:20.024,0.27755928,0.010083744,0.72228247,-0.064740755,-0.50924325,-0.10688515,0.34732717,-0.48383293,0.30629402,0.08069109,0.42808953,0.29567525,0.36394444,0.7023849,0.7560149,0.5814071,-0.11036346,0.40731463,0.63689494,0.1485169,630.18317,870.7326,871.9414,513.73627,651.13556,0.01568603515625,-0.060546875,0.9879150390625,-0.43365478515625,1.921539306640625,1.936492919921875,1,1.0,1.0,1.0,1.0,85.53
2019-06-12 12:46:20.025,0.27755928,0.010083744,0.72228247,-0.064740755,-0.50924325,-0.10688515,0.34732717,-0.48383293,0.30629402,0.08069109,0.42808953,0.29567525,0.36394444,0.7023849,0.7560149,0.5814071,-0.11036346,0.40731463,0.63689494,0.1485169,682.1612,858.6447,858.6447,515.7509,502.05127,0.01568603515625,-0.060546875,0.9879150390625,-0.43365478515625,1.921539306640625,1.936492919921875,1,1.0,1.0,1.0,1.0,85.53
2019-06-12 12:46:20.027,0.27755928,0.010083744,0.72228247,-0.064740755,-0.50924325,-0.10688515,0.34732717,-0.48383293,0.30629402,0.08069109,0.42808953,0.29567525,0.36394444,0.7023849,0.7560149,0.5814071,-0.11036346,0.40731463,0.63689494,0.1485169,1001.685,825.2015,823.5897,1056.8865,793.36993,0.01568603515625,-0.060546875,0.9879150390625,-0.43365478515625,1.921539306640625,1.936492919921875,1,1.0,1.0,1.0,1.0,85.53
2019-06-12 12:46:20.029,0.27755928,0.010083744,0.72228247,-0.064740755,-0.50924325,-0.10688515,0.34732717,-0.48383293,0.30629402,0.08069109,0.42808953,0.29567525,0.36394444,0.7023849,0.7560149,0.5814071,-0.11036346,0.40731463,0.63689494,0.1485169,1021.4286,834.4689,827.2161,1203.1501,1066.5568,0.01568603515625,-0.060546875,0.9879150390625,-0.43365478515625,1.921539306640625,1.936492919921875,1,1.0,1.0,1.0,1.0,85.53
2019-06-12 12:46:20.030,0.27755928,0.010083744,0.72228247,-0.064740755,-0.50924325,-0.10688515,0.34732717,-0.48383293,0.30629402,0.08069109,0.42808953,0.29567525,0.36394444,0.7023849,0.7560149,0.5814071,-0.11036346,0.40731463,0.63689494,0.1485169,689.81683,880.0,878.3883,652.3443,814.7253,0.01568603515625,-0.060546875,0.9879150390625,-0.43365478515625,1.921539306640625,1.936492919921875,1,1.0,1.0,1.0,1.0,85.53
2019-06-12 12:46:20.032,0.27755928,0.010083744,0.72228247,-0.064740755,-0.50924325,-0.10688515,0.34732717,-0.48383293,0.30629402,0.08069109,0.42808953,0.29567525,0.36394444,0.7023849,0.7560149,0.5814071,-0.11036346,0.40731463,0.63689494,0.1485169,635.82416,858.6447,877.5824,455.31134,561.685,0.01568603515625,-0.060546875,0.9879150390625,-0.43365478515625,1.921539306640625,1.936492919921875,1,1.0,1.0,1.0,1.0,85.53
2019-06-12 12:46:20.085,0.27755928,0.010083744,0.72228247,-0.064740755,-0.50924325,-0.10688515,0.34732717,-0.48383293,0.30629402,0.08069109,0.42808953,0.29567525,0.36394444,0.7023849,0.7560149,0.5814071,-0.11036346,0.40731463,0.63689494,0.1485169,914.65204,818.7546,840.5128,891.28204,744.21246,0.01568603515625,-0.060546875,0.9879150390625,-0.43365478515625,1.921539306640625,1.936492919921875,1,1.0,1.0,1.0,1.0,85.53
2019-06-12 12:46:20.087,0.27755928,0.010083744,0.72228247,-0.064740755,-0.50924325,-0.10688515,0.34732717,-0.48383293,0.30629402,0.08069109,0.42808953,0.29567525,0.36394444,0.7023849,0.7560149,0.5814071,-0.11036346,0.40731463,0.63689494,0.1485169,1074.2124,823.5897,833.663,1251.9048,1103.6263,0.01568603515625,-0.060546875,0.9879150390625,-0.43365478515625,1.921539306640625,1.936492919921875,1,1.0,1.0,1.0,1.0,85.53
2019-06-12 12:46:20.088,0.27755928,0.010083744,0.72228247,-0.064740755,-0.50924325,-0.10688515,0.34732717,-0.48383293,0.30629402,0.08069109,0.42808953,0.29567525,0.36394444,0.7023849,0.7560149,0.5814071,-0.11036346,0.40731463,0.63689494,0.1485169,780.4762,880.0,878.7912,807.0696,917.0696,0.01568603515625,-0.060546875,0.9879150390625,-0.43365478515625,1.921539306640625,1.936492919921875,1,1.0,1.0,1.0,1.0,85.53
2019-06-12 12:46:20.089,0.27755928,0.010083744,0.72228247,-0.064740755,-0.50924325,-0.10688515,0.34732717,-0.48383293,0.30629402,0.08069109,0.42808953,0.29567525,0.36394444,0.7023849,0.7560149,0.5814071,-0.11036346,0.40731463,0.63689494,0.1485169,616.08057,882.4176,886.04395,446.84982,561.685,0.01568603515625,-0.060546875,0.9879150390625,-0.43365478515625,1.921539306640625,1.936492919921875,1,1.0,1.0,1.0,1.0,85.53
2019-06-12 12:46:20.090,0.27755928,0.010083744,0.72228247,-0.064740755,-0.50924325,-0.10688515,0.34732717,-0.48383293,0.30629402,0.08069109,0.42808953,0.29567525,0.36394444,0.7023849,0.7560149,0.5814071,-0.11036346,0.40731463,0.63689494,0.1485169,825.6044,836.08057,850.18317,743.8095,619.304,0.01568603515625,-0.060546875,0.9879150390625,-0.43365478515625,1.921539306640625,1.936492919921875,1,1.0,1.0,1.0,1.0,85.53
2019-06-12 12:46:20.091,0.27755928,0.010083744,0.72228247,-0.064740755,-0.50924325,-0.10688515,0.34732717,-0.48383293,0.30629402,0.08069109,0.42808953,0.29567525,0.36394444,0.7023849,0.7560149,0.5814071,-0.11036346,0.40731463,0.63689494,0.1485169,1085.4945,814.7253,826.4103,1244.652,1008.1319,0.01568603515625,-0.060546875,0.9879150390625,-0.43365478515625,1.921539306640625,1.936492919921875,1,1.0,1.0,1.0,1.0,85.53
2019-06-12 12:46:20.092,0.27755928,0.010083744,0.72228247,-0.064740755,-0.50924325,-0.10688515,0.34732717,-0.48383293,0.30629402,0.08069109,0.42808953,0.29567525,0.36394444,0.7023849,0.7560149,0.5814071,-0.11036346,0.40731463,0.63689494,0.1485169,881.2088,853.00366,864.2857,986.77655,977.50916,0.01568603515625,-0.060546875,0.9879150390625,-0.43365478515625,1.921539306640625,1.936492919921875,1,1.0,1.0,1.0,1.0,85.53
2019-06-12 12:46:20.093,0.27755928,0.010083744,0.72228247,-0.064740755,-0.50924325,-0.10688515,0.34732717,-0.48383293,0.30629402,0.08069109,0.42808953,0.29567525,0.36394444,0.7023849,0.7560149,0.5814071,-0.11036346,0.40731463,0.63689494,0.1485169,616.4835,869.12085,886.04395,483.51648,592.71063,0.01568603515625,-0.060546875,0.9879150390625,-0.43365478515625,1.921539306640625,1.936492919921875,1,1.0,1.0,1.0,1.0,85.53
2019-06-12 12:46:20.094,0.27755928,0.010083744,0.72228247,-0.064740755,-0.50924325,-0.10688515,0.34732717,-0.48383293,0.30629402,0.08069109,0.42808953,0.29567525,0.36394444,0.7023849,0.7560149,0.5814071,-0.11036346,0.40731463,0.63689494,0.1485169,735.7509,841.31866,858.24176,601.5751,567.326,0.01568603515625,-0.060546875,0.9879150390625,-0.43365478515625,1.921539306640625,1.936492919921875,1,1.0,1.0,1.0,1.0,85.53
2019-06-12 12:46:20.095,0.27755928,0.010083744,0.72228247,-0.064740755,-0.50924325,-0.10688515,0.34732717,-0.48383293,0.30629402,0.08069109,0.42808953,0.29567525,0.36394444,0.7023849,0.7560149,0.5814071,-0.11036346,0.40731463,0.63689494,0.1485169,1041.978,809.4872,829.2308,1148.3517,946.4835,0.01568603515625,-0.060546875,0.9879150390625,-0.43365478515625,1.921539306640625,1.936492919921875,1,1.0,1.0,1.0,1.0,85.53
2019-06-12 12:46:20.096,0.27755928,0.010083744,0.72228247,-0.064740755,-0.50924325,-0.10688515,0.34732717,-0.48383293,0.30629402,0.08069109,0.42808953,0.29567525,0.36394444,0.7023849,0.7560149,0.5814071,-0.11036346,0.40731463,0.63689494,0.1485169,971.8681,834.87177,857.03296,1129.414,1061.3187,0.01568603515625,-0.060546875,0.9879150390625,-0.43365478515625,1.921539306640625,1.936492919921875,1,1.0,1.0,1.0,1.0,85.53
2019-06-12 12:46:20.097,0.27755928,0.010083744,0.72228247,-0.064740755,-0.50924325,-0.10688515,0.34732717,-0.48383293,0.30629402,0.08069109,0.42808953,0.29567525,0.36394444,0.7023849,0.7560149,0.5814071,-0.11036346,0.40731463,0.63689494,0.1485169,653.95605,880.80585,896.52014,569.34064,689.41394,0.01568603515625,-0.060546875,0.9879150390625,-0.43365478515625,1.921539306640625,1.936492919921875,1,1.0,1.0,1.0,1.0,85.53
2019-06-12 12:46:20.098,0.27755928,0.010083744,0.72228247,-0.064740755,-0.50924325,-0.10688515,0.34732717,-0.48383293,0.30629402,0.08069109,0.42808953,0.29567525,0.36394444,0.7023849,0.7560149,0.5814071,-0.11036346,0.40731463,0.63689494,0.1485169,666.4469,867.50916,876.3736,501.64835,503.26007,0.0164794921875,-0.06292724609375,0.98907470703125,-1.278533935546875,1.92901611328125,2.400054931640625,1,1.0,1.0,1.0,1.0,85.53
2019-06-12 12:46:20.099,0.27755928,0.010083744,0.72228247,-0.064740755,-0.50924325,-0.10688515,0.34732717,-0.48383293,0.30629402,0.08069109,0.42808953,0.29567525,0.36394444,0.7023849,0.7560149,0.5814071,-0.11036346,0.40731463,0.63689494,0.1485169,966.2271,819.5604,829.2308,1004.10254,810.696,0.0164794921875,-0.06292724609375,0.98907470703125,-1.278533935546875,1.92901611328125,2.400054931640625,1,1.0,1.0,1.0,1.0,85.53
2019-06-12 12:46:20.100,0.27755928,0.010083744,0.72228247,-0.064740755,-0.50924325,-0.10688515,0.34732717,-0.48383293,0.30629402,0.08069109,0.42808953,0.29567525,0.36394444,0.7023849,0.7560149,0.5814071,-0.11036346,0.40731463,0.63689494,0.1485169,1039.5604,833.2601,846.9597,1224.5055,1110.0732,0.0164794921875,-0.06292724609375,0.98907470703125,-1.278533935546875,1.92901611328125,2.400054931640625,1,1.0,1.0,1.0,1.0,85.53
2019-06-12 12:46:20.101,0.27755928,0.010083744,0.72228247,-0.064740755,-0.50924325,-0.10688515,0.34732717,-0.48383293,0.30629402,0.08069109,0.42808953,0.29567525,0.36394444,0.7023849,0.7560149,0.5814071,-0.11036346,0.40731463,0.63689494,0.1485169,716.8132,878.7912,894.90845,699.0842,817.5458,0.0164794921875,-0.06292724609375,0.98907470703125,-1.278533935546875,1.92901611328125,2.400054931640625,1,1.0,1.0,1.0,1.0,85.53
2019-06-12 12:46:20.102,0.27755928,0.010083744,0.72228247,-0.064740755,-0.50924325,-0.10688515,0.34732717,-0.48383293,0.30629402,0.08069109,0.42808953,0.29567525,0.36394444,0.7023849,0.7560149,0.5814071,-0.11036346,0.40731463,0.63689494,0.1485169,626.1539,871.13556,881.6117,455.31134,504.06595,0.0164794921875,-0.06292724609375,0.98907470703125,-1.278533935546875,1.92901611328125,2.400054931640625,1,1.0,1.0,1.0,1.0,85.53
2019-06-12 12:46:20.104,0.27755928,0.010083744,0.72228247,-0.064740755,-0.50924325,-0.10688515,0.34732717,-0.48383293,0.30629402,0.08069109,0.42808953,0.29567525,0.36394444,0.7023849,0.7560149,0.5814071,-0.11036346,0.40731463,0.63689494,0.1485169,888.86444,834.0659,843.3333,859.0476,681.3553,0.0164794921875,-0.06292724609375,0.98907470703125,-1.278533935546875,1.92901611328125,2.400054931640625,1,1.0,1.0,1.0,1.0,85.53
2019-06-12 12:46:20.105,0.27755928,0.010083744,0.72228247,-0.064740755,-0.50924325,-0.10688515,0.34732717,-0.48383293,0.30629402,0.08069109,0.42808953,0.29567525,0.36394444,0.7023849,0.7560149,0.5814071,-0.11036346,0.40731463,0.63689494,0.1485169,1079.0476,832.0513,840.10986,1261.978,1062.9304,0.0164794921875,-0.06292724609375,0.98907470703125,-1.278533935546875,1.92901611328125,2.400054931640625,1,1.0,1.0,1.0,1.0,85.53
2019-06-12 12:46:20.106,0.29683238,-0.06780736,0.72228247,-0.007658443,-0.5248057,-0.22477706,0.34732717,-0.4426331,0.3104707,-0.07445117,0.42808953,0.29567525,0.37141475,0.6509325,0.7560149,0.56937575,-0.09272584,0.31802782,0.63689494,0.17184797,813.1135,876.3736,889.2674,864.68866,893.2967,0.0164794921875,-0.06292724609375,0.98907470703125,-1.278533935546875,1.92901611328125,2.400054931640625,1,1.0,1.0,1.0,1.0,85.53
2019-06-12 12:46:20.112,0.29683238,-0.06780736,0.72228247,-0.007658443,-0.5248057,-0.22477706,0.34732717,-0.4426331,0.3104707,-0.07445117,0.42808953,0.29567525,0.37141475,0.6509325,0.7560149,0.56937575,-0.09272584,0.31802782,0.63689494,0.17184797,617.6923,870.32965,891.685,459.7436,535.09155,0.0164794921875,-0.06292724609375,0.98907470703125,-1.278533935546875,1.92901611328125,2.400054931640625,1,1.0,1.0,1.0,1.0,85.53
2019-06-12 12:46:20.113,0.29683238,-0.06780736,0.72228247,-0.007658443,-0.5248057,-0.22477706,0.34732717,-0.4426331,0.3104707,-0.07445117,0.42808953,0.29567525,0.37141475,0.6509325,0.7560149,0.56937575,-0.09272584,0.31802782,0.63689494,0.17184797,803.0403,831.6484,857.4359,711.1722,599.15753,0.0164794921875,-0.06292724609375,0.98907470703125,-1.278533935546875,1.92901611328125,2.400054931640625,1,1.0,1.0,1.0,1.0,85.53
2019-06-12 12:46:20.114,0.29683238,-0.06780736,0.72228247,-0.007658443,-0.5248057,-0.22477706,0.34732717,-0.4426331,0.3104707,-0.07445117,0.42808953,0.29567525,0.37141475,0.6509325,0.7560149,0.56937575,-0.09272584,0.31802782,0.63689494,0.17184797,1082.674,807.8755,832.0513,1237.3993,1007.72894,0.0164794921875,-0.06292724609375,0.98907470703125,-1.278533935546875,1.92901611328125,2.400054931640625,1,1.0,1.0,1.0,1.0,85.53
2019-06-12 12:46:20.115,0.29683238,-0.06780736,0.72228247,-0.007658443,-0.5248057,-0.22477706,0.34732717,-0.4426331,0.3104707,-0.07445117,0.42808953,0.29567525,0.37141475,0.6509325,0.7560149,0.56937575,-0.09272584,0.31802782,0.63689494,0.17184797,910.6227,854.21246,861.8681,1023.0403,1027.8755,0.0164794921875,-0.06292724609375,0.98907470703125,-1.278533935546875,1.92901611328125,2.400054931640625,1,1.0,1.0,1.0,1.0,85.53
2019-06-12 12:46:20.116,0.29683238,-0.06780736,0.72228247,-0.007658443,-0.5248057,-0.22477706,0.34732717,-0.4426331,0.3104707,-0.07445117,0.42808953,0.29567525,0.37141475,0.6509325,0.7560149,0.56937575,-0.09272584,0.31802782,0.63689494,0.17184797,628.97437,883.6264,891.28204,489.1575,640.65936,0.0177001953125,-0.0682373046875,0.9871826171875,-0.814971923828125,1.128997802734375,2.91595458984375,1,1.0,1.0,1.0,1.0,85.53
2019-06-12 12:46:20.117,0.29683238,-0.06780736,0.72228247,-0.007658443,-0.5248057,-0.22477706,0.34732717,-0.4426331,0.3104707,-0.07445117,0.42808953,0.29567525,0.37141475,0.6509325,0.7560149,0.56937575,-0.09272584,0.31802782,0.63689494,0.17184797,724.4689,855.42126,872.3443,576.1905,550.80585,0.0177001953125,-0.0682373046875,0.9871826171875,-0.814971923828125,1.128997802734375,2.91595458984375,1,1.0,1.0,1.0,1.0,85.53
2019-06-12 12:46:20.119,0.29683238,-0.06780736,0.72228247,-0.007658443,-0.5248057,-0.22477706,0.34732717,-0.4426331,0.3104707,-0.07445117,0.42808953,0.29567525,0.37141475,0.6509325,0.7560149,0.56937575,-0.09272584,0.31802782,0.63689494,0.17184797,1034.7252,819.9634,835.2747,1122.5641,891.28204,0.0177001953125,-0.0682373046875,0.9871826171875,-0.814971923828125,1.128997802734375,2.91595458984375,1,1.0,1.0,1.0,1.0,85.53
2019-06-12 12:46:20.120,0.29683238,-0.06780736,0.72228247,-0.007658443,-0.5248057,-0.22477706,0.34732717,-0.4426331,0.3104707,-0.07445117,0.42808953,0.29567525,0.37141475,0.6509325,0.7560149,0.56937575,-0.09272584,0.31802782,0.63689494,0.17184797,985.9707,844.1392,850.989,1145.5311,1076.227,0.0177001953125,-0.0682373046875,0.9871826171875,-0.814971923828125,1.128997802734375,2.91595458984375,1,1.0,1.0,1.0,1.0,85.53
2019-06-12 12:46:20.121,0.29683238,-0.06780736,0.72228247,-0.007658443,-0.5248057,-0.22477706,0.34732717,-0.4426331,0.3104707,-0.07445117,0.42808953,0.29567525,0.37141475,0.6509325,0.7560149,0.56937575,-0.09272584,0.31802782,0.63689494,0.17184797,656.77655,875.56775,890.4762,579.81683,740.18317,0.0177001953125,-0.0682373046875,0.9871826171875,-0.814971923828125,1.128997802734375,2.91595458984375,1,1.0,1.0,1.0,1.0,85.53
2019-06-12 12:46:20.122,0.29683238,-0.06780736,0.72228247,-0.007658443,-0.5248057,-0.22477706,0.34732717,-0.4426331,0.3104707,-0.07445117,0.42808953,0.29567525,0.37141475,0.6509325,0.7560149,0.56937575,-0.09272584,0.31802782,0.63689494,0.17184797,660.80585,860.65936,875.16486,486.337,515.7509,0.0177001953125,-0.0682373046875,0.9871826171875,-0.814971923828125,1.128997802734375,2.91595458984375,1,1.0,1.0,1.0,1.0,85.53
2019-06-12 12:46:20.123,0.29683238,-0.06780736,0.72228247,-0.007658443,-0.5248057,-0.22477706,0.34732717,-0.4426331,0.3104707,-0.07445117,0.42808953,0.29567525,0.37141475,0.6509325,0.7560149,0.56937575,-0.09272584,0.31802782,0.63689494,0.17184797,959.7802,832.8571,839.304,980.7326,764.7619,0.0177001953125,-0.0682373046875,0.9871826171875,-0.814971923828125,1.128997802734375,2.91595458984375,1,1.0,1.0,1.0,1.0,85.53
2019-06-12 12:46:20.124,0.29683238,-0.06780736,0.72228247,-0.007658443,-0.5248057,-0.22477706,0.34732717,-0.4426331,0.3104707,-0.07445117,0.42808953,0.29567525,0.37141475,0.6509325,0.7560149,0.56937575,-0.09272584,0.31802782,0.63689494,0.17184797,1044.7986,830.4396,844.5421,1234.1758,1053.2601,0.0177001953125,-0.0682373046875,0.9871826171875,-0.814971923828125,1.128997802734375,2.91595458984375,1,1.0,1.0,1.0,1.0,85.53
2019-06-12 12:46:20.125,0.29683238,-0.06780736,0.72228247,-0.007658443,-0.5248057,-0.22477706,0.34732717,-0.4426331,0.3104707,-0.07445117,0.42808953,0.29567525,0.37141475,0.6509325,0.7560149,0.56937575,-0.09272584,0.31802782,0.63689494,0.17184797,721.6484,874.7619,882.01465,721.6484,811.0989,0.0177001953125,-0.0682373046875,0.9871826171875,-0.814971923828125,1.128997802734375,2.91595458984375,1,1.0,1.0,1.0,1.0,85.53
2019-06-12 12:46:20.126,0.29683238,-0.06780736,0.72228247,-0.007658443,-0.5248057,-0.22477706,0.34732717,-0.4426331,0.3104707,-0.07445117,0.42808953,0.29567525,0.37141475,0.6509325,0.7560149,0.56937575,-0.09272584,0.31802782,0.63689494,0.17184797,622.1245,875.9707,882.01465,453.69965,520.18317,0.0177001953125,-0.0682373046875,0.9871826171875,-0.814971923828125,1.128997802734375,2.91595458984375,1,1.0,1.0,1.0,1.0,85.53
2019-06-12 12:46:20.126,0.29683238,-0.06780736,0.72228247,-0.007658443,-0.5248057,-0.22477706,0.34732717,-0.4426331,0.3104707,-0.07445117,0.42808953,0.29567525,0.37141475,0.6509325,0.7560149,0.56937575,-0.09272584,0.31802782,0.63689494,0.17184797,867.50916,836.4835,843.3333,826.8132,686.5934,0.0177001953125,-0.0682373046875,0.9871826171875,-0.814971923828125,1.128997802734375,2.91595458984375,1,1.0,1.0,1.0,1.0,85.53
2019-06-12 12:46:20.127,0.29683238,-0.06780736,0.72228247,-0.007658443,-0.5248057,-0.22477706,0.34732717,-0.4426331,0.3104707,-0.07445117,0.42808953,0.29567525,0.37141475,0.6509325,0.7560149,0.56937575,-0.09272584,0.31802782,0.63689494,0.17184797,1079.0476,817.1429,833.663,1265.6044,1067.7656,0.0177001953125,-0.0682373046875,0.9871826171875,-0.814971923828125,1.128997802734375,2.91595458984375,1,1.0,1.0,1.0,1.0,85.53
2019-06-12 12:46:20.160,0.29683238,-0.06780736,0.72228247,-0.007658443,-0.5248057,-0.22477706,0.34732717,-0.4426331,0.3104707,-0.07445117,0.42808953,0.29567525,0.37141475,0.6509325,0.7560149,0.56937575,-0.09272584,0.31802782,0.63689494,0.17184797,834.87177,848.97437,878.3883,913.0403,944.4689,0.021240234375,-0.06689453125,0.98370361328125,-0.25421142578125,1.39068603515625,3.1103515625,1,1.0,1.0,1.0,1.0,85.53
2019-06-12 12:46:20.161,0.29683238,-0.06780736,0.72228247,-0.007658443,-0.5248057,-0.22477706,0.34732717,-0.4426331,0.3104707,-0.07445117,0.42808953,0.29567525,0.37141475,0.6509325,0.7560149,0.56937575,-0.09272584,0.31802782,0.63689494,0.17184797,621.7216,880.40295,888.46155,474.24908,571.75824,0.021240234375,-0.06689453125,0.98370361328125,-0.25421142578125,1.39068603515625,3.1103515625,1,1.0,1.0,1.0,1.0,85.53
2019-06-12 12:46:20.162,0.29683238,-0.06780736,0.72228247,-0.007658443,-0.5248057,-0.22477706,0.34732717,-0.4426331,0.3104707,-0.07445117,0.42808953,0.29567525,0.37141475,0.6509325,0.7560149,0.56937575,-0.09272584,0.31802782,0.63689494,0.17184797,780.07324,864.2857,856.2271,675.7143,575.78754,0.021240234375,-0.06689453125,0.98370361328125,-0.25421142578125,1.39068603515625,3.1103515625,1,1.0,1.0,1.0,1.0,85.53
2019-06-12 12:46:20.163,0.29683238,-0.06780736,0.72228247,-0.007658443,-0.5248057,-0.22477706,0.34732717,-0.4426331,0.3104707,-0.07445117,0.42808953,0.29567525,0.37141475,0.6509325,0.7560149,0.56937575,-0.09272584,0.31802782,0.63689494,0.17184797,1058.4982,824.7985,823.5897,1198.3151,977.9121,0.021240234375,-0.06689453125,0.98370361328125,-0.25421142578125,1.39068603515625,3.1103515625,1,1.0,1.0,1.0,1.0,85.53
2019-06-12 12:46:20.164,0.29683238,-0.06780736,0.72228247,-0.007658443,-0.5248057,-0.22477706,0.34732717,-0.4426331,0.3104707,-0.07445117,0.42808953,0.29567525,0.37141475,0.6509325,0.7560149,0.56937575,-0.09272584,0.31802782,0.63689494,0.17184797,916.6667,850.58606,863.8828,1052.0513,1046.0073,0.021240234375,-0.06689453125,0.98370361328125,-0.25421142578125,1.39068603515625,3.1103515625,1,1.0,1.0,1.0,1.0,85.53
2019-06-12 12:46:20.166,0.29683238,-0.06780736,0.72228247,-0.007658443,-0.5248057,-0.22477706,0.34732717,-0.4426331,0.3104707,-0.07445117,0.42808953,0.29567525,0.37141475,0.6509325,0.7560149,0.56937575,-0.09272584,0.31802782,0.63689494,0.17184797,626.55676,883.22345,898.5348,520.18317,636.2271,0.021240234375,-0.06689453125,0.98370361328125,-0.25421142578125,1.39068603515625,3.1103515625,1,1.0,1.0,1.0,1.0,85.53
2019-06-12 12:46:20.167,0.29683238,-0.06780736,0.72228247,-0.007658443,-0.5248057,-0.22477706,0.34732717,-0.4426331,0.3104707,-0.07445117,0.42808953,0.29567525,0.37141475,0.6509325,0.7560149,0.56937575,-0.09272584,0.31802782,0.63689494,0.17184797,700.293,846.9597,869.12085,558.46155,502.05127,0.021240234375,-0.06689453125,0.98370361328125,-0.25421142578125,1.39068603515625,3.1103515625,1,1.0,1.0,1.0,1.0,85.53
2019-06-12 12:46:20.168,0.29683238,-0.06780736,0.72228247,-0.007658443,-0.5248057,-0.22477706,0.34732717,-0.4426331,0.3104707,-0.07445117,0.42808953,0.29567525,0.37141475,0.6509325,0.7560149,0.56937575,-0.09272584,0.31802782,0.63689494,0.17184797,1014.57874,802.6374,830.4396,1096.3737,853.4066,0.021240234375,-0.06689453125,0.98370361328125,-0.25421142578125,1.39068603515625,3.1103515625,1,1.0,1.0,1.0,1.0,85.53
2019-06-12 12:46:20.169,0.29683238,-0.06780736,0.72228247,-0.007658443,-0.5248057,-0.22477706,0.34732717,-0.4426331,0.3104707,-0.07445117,0.42808953,0.29567525,0.37141475,0.6509325,0.7560149,0.56937575,-0.09272584,0.31802782,0.63689494,0.17184797,1006.52014,839.707,852.6007,1184.6154,1086.7032,0.021240234375,-0.06689453125,0.98370361328125,-0.25421142578125,1.39068603515625,3.1103515625,1,1.0,1.0,1.0,1.0,85.53
2019-06-12 12:46:20.170,0.2865102,-0.1456475,0.72228247,0.04113133,-0.5392509,-0.38895398,0.34732717,-0.36937797,0.3104707,-0.2135237,0.42808953,0.29567525,0.3725023,0.61874676,0.7560149,0.5574358,-0.074969105,0.2701587,0.63689494,0.19862662,676.52014,889.67035,887.6557,619.707,748.6447,0.021240234375,-0.06689453125,0.98370361328125,-0.25421142578125,1.39068603515625,3.1103515625,1,1.0,1.0,1.0,1.0,85.53
2019-06-12 12:46:20.176,0.2865102,-0.1456475,0.72228247,0.04113133,-0.5392509,-0.38895398,0.34732717,-0.36937797,0.3104707,-0.2135237,0.42808953,0.29567525,0.3725023,0.61874676,0.7560149,0.5574358,-0.074969105,0.2701587,0.63689494,0.19862662,648.315,876.3736,863.47986,466.99634,498.4249,0.021240234375,-0.06689453125,0.98370361328125,-0.25421142578125,1.39068603515625,3.1103515625,1,1.0,1.0,1.0,1.0,85.53
2019-06-12 12:46:20.176,0.2865102,-0.1456475,0.72228247,0.04113133,-0.5392509,-0.38895398,0.34732717,-0.36937797,0.3104707,-0.2135237,0.42808953,0.29567525,0.3725023,0.61874676,0.7560149,0.5574358,-0.074969105,0.2701587,0.63689494,0.19862662,929.15753,838.49817,825.2015,922.71063,762.3443,0.021240234375,-0.06689453125,0.98370361328125,-0.25421142578125,1.39068603515625,3.1103515625,1,1.0,1.0,1.0,1.0,85.53
2019-06-12 12:46:20.212,0.2865102,-0.1456475,0.72228247,0.04113133,-0.5392509,-0.38895398,0.34732717,-0.36937797,0.3104707,-0.2135237,0.42808953,0.29567525,0.3725023,0.61874676,0.7560149,0.5574358,-0.074969105,0.2701587,0.63689494,0.19862662,1063.3334,847.76556,842.1245,1242.2344,1091.1355,0.01873779296875,-0.06768798828125,0.99212646484375,-0.530853271484375,2.489776611328125,3.170166015625,1,1.0,1.0,1.0,1.0,85.53
2019-06-12 12:46:20.214,0.2865102,-0.1456475,0.72228247,0.04113133,-0.5392509,-0.38895398,0.34732717,-0.36937797,0.3104707,-0.2135237,0.42808953,0.29567525,0.3725023,0.61874676,0.7560149,0.5574358,-0.074969105,0.2701587,0.63689494,0.19862662,759.12085,888.46155,885.2381,771.6117,855.82416,0.01873779296875,-0.06768798828125,0.99212646484375,-0.530853271484375,2.489776611328125,3.170166015625,1,1.0,1.0,1.0,1.0,85.53
2019-06-12 12:46:20.215,0.2865102,-0.1456475,0.72228247,0.04113133,-0.5392509,-0.38895398,0.34732717,-0.36937797,0.3104707,-0.2135237,0.42808953,0.29567525,0.3725023,0.61874676,0.7560149,0.5574358,-0.074969105,0.2701587,0.63689494,0.19862662,612.8571,880.0,880.80585,444.0293,532.27106,0.01873779296875,-0.06768798828125,0.99212646484375,-0.530853271484375,2.489776611328125,3.170166015625,1,1.0,1.0,1.0,1.0,85.53
2019-06-12 12:46:20.216,0.2865102,-0.1456475,0.72228247,0.04113133,-0.5392509,-0.38895398,0.34732717,-0.36937797,0.3104707,-0.2135237,0.42808953,0.29567525,0.3725023,0.61874676,0.7560149,0.5574358,-0.074969105,0.2701587,0.63689494,0.19862662,842.52747,838.0952,847.3626,775.2381,658.7912,0.01873779296875,-0.06768798828125,0.99212646484375,-0.530853271484375,2.489776611328125,3.170166015625,1,1.0,1.0,1.0,1.0,85.53
2019-06-12 12:46:20.217,0.2865102,-0.1456475,0.72228247,0.04113133,-0.5392509,-0.38895398,0.34732717,-0.36937797,0.3104707,-0.2135237,0.42808953,0.29567525,0.3725023,0.61874676,0.7560149,0.5574358,-0.074969105,0.2701587,0.63689494,0.19862662,1087.5092,817.9487,838.9011,1251.0989,1032.7106,0.01873779296875,-0.06768798828125,0.99212646484375,-0.530853271484375,2.489776611328125,3.170166015625,1,1.0,1.0,1.0,1.0,85.53
2019-06-12 12:46:20.218,0.2865102,-0.1456475,0.72228247,0.04113133,-0.5392509,-0.38895398,0.34732717,-0.36937797,0.3104707,-0.2135237,0.42808953,0.29567525,0.3725023,0.61874676,0.7560149,0.5574358,-0.074969105,0.2701587,0.63689494,0.19862662,865.89746,863.47986,877.5824,943.2601,936.0073,0.01873779296875,-0.06768798828125,0.99212646484375,-0.530853271484375,2.489776611328125,3.170166015625,1,1.0,1.0,1.0,1.0,85.53
2019-06-12 12:46:20.219,0.2865102,-0.1456475,0.72228247,0.04113133,-0.5392509,-0.38895398,0.34732717,-0.36937797,0.3104707,-0.2135237,0.42808953,0.29567525,0.3725023,0.61874676,0.7560149,0.5574358,-0.074969105,0.2701587,0.63689494,0.19862662,620.10986,881.6117,887.25275,471.42856,569.34064,0.01873779296875,-0.06768798828125,0.99212646484375,-0.530853271484375,2.489776611328125,3.170166015625,1,1.0,1.0,1.0,1.0,85.53
2019-06-12 12:46:20.220,0.2865102,-0.1456475,0.72228247,0.04113133,-0.5392509,-0.38895398,0.34732717,-0.36937797,0.3104707,-0.2135237,0.42808953,0.29567525,0.3725023,0.61874676,0.7560149,0.5574358,-0.074969105,0.2701587,0.63689494,0.19862662,753.47986,838.0952,858.6447,633.00366,574.17584,0.01873779296875,-0.06768798828125,0.99212646484375,-0.530853271484375,2.489776611328125,3.170166015625,1,1.0,1.0,1.0,1.0,85.53
2019-06-12 12:46:20.221,0.2865102,-0.1456475,0.72228247,0.04113133,-0.5392509,-0.38895398,0.34732717,-0.36937797,0.3104707,-0.2135237,0.42808953,0.29567525,0.3725023,0.61874676,0.7560149,0.5574358,-0.074969105,0.2701587,0.63689494,0.19862662,1058.0952,807.47253,830.0366,1180.989,959.3773,0.01873779296875,-0.06768798828125,0.99212646484375,-0.530853271484375,2.489776611328125,3.170166015625,1,1.0,1.0,1.0,1.0,85.53
2019-06-12 12:46:20.223,0.2865102,-0.1456475,0.72228247,0.04113133,-0.5392509,-0.38895398,0.34732717,-0.36937797,0.3104707,-0.2135237,0.42808953,0.29567525,0.3725023,0.61874676,0.7560149,0.5574358,-0.074969105,0.2701587,0.63689494,0.19862662,955.7509,853.4066,863.47986,1098.7913,1043.1868,0.01873779296875,-0.06768798828125,0.99212646484375,-0.530853271484375,2.489776611328125,3.170166015625,1,1.0,1.0,1.0,1.0,85.53
2019-06-12 12:46:20.225,0.2865102,-0.1456475,0.72228247,0.04113133,-0.5392509,-0.38895398,0.34732717,-0.36937797,0.3104707,-0.2135237,0.42808953,0.29567525,0.3725023,0.61874676,0.7560149,0.5574358,-0.074969105,0.2701587,0.63689494,0.19862662,639.45056,885.64105,894.90845,537.50916,666.04395,0.01873779296875,-0.06768798828125,0.99212646484375,-0.530853271484375,2.489776611328125,3.170166015625,1,1.0,1.0,1.0,1.0,85.53
2019-06-12 12:46:20.226,0.2865102,-0.1456475,0.72228247,0.04113133,-0.5392509,-0.38895398,0.34732717,-0.36937797,0.3104707,-0.2135237,0.42808953,0.29567525,0.3725023,0.61874676,0.7560149,0.5574358,-0.074969105,0.2701587,0.63689494,0.19862662,682.5641,851.39197,873.5531,523.4066,521.79486,0.01873779296875,-0.06768798828125,0.99212646484375,-0.530853271484375,2.489776611328125,3.170166015625,1,1.0,1.0,1.0,1.0,85.53
2019-06-12 12:46:20.227,0.2865102,-0.1456475,0.72228247,0.04113133,-0.5392509,-0.38895398,0.34732717,-0.36937797,0.3104707,-0.2135237,0.42808953,0.29567525,0.3725023,0.61874676,0.7560149,0.5574358,-0.074969105,0.2701587,0.63689494,0.19862662,1001.28204,817.1429,839.304,1057.6923,818.7546,0.01873779296875,-0.06768798828125,0.99212646484375,-0.530853271484375,2.489776611328125,3.170166015625,1,1.0,1.0,1.0,1.0,85.53
2019-06-12 12:46:20.228,0.2865102,-0.1456475,0.72228247,0.04113133,-0.5392509,-0.38895398,0.34732717,-0.36937797,0.3104707,-0.2135237,0.42808953,0.29567525,0.3725023,0.61874676,0.7560149,0.5574358,-0.074969105,0.2701587,0.63689494,0.19862662,1034.3224,839.707,851.39197,1214.4323,1048.4249,0.01873779296875,-0.06768798828125,0.99212646484375,-0.530853271484375,2.489776611328125,3.170166015625,1,1.0,1.0,1.0,1.0,85.53
2019-06-12 12:46:20.229,0.2865102,-0.1456475,0.72228247,0.04113133,-0.5392509,-0.38895398,0.34732717,-0.36937797,0.3104707,-0.2135237,0.42808953,0.29567525,0.3725023,0.61874676,0.7560149,0.5574358,-0.074969105,0.2701587,0.63689494,0.19862662,696.26373,880.80585,883.22345,650.7326,770.0,0.01873779296875,-0.06768798828125,0.99212646484375,-0.530853271484375,2.489776611328125,3.170166015625,1,1.0,1.0,1.0,1.0,85.53
2019-06-12 12:46:20.231,0.2865102,-0.1456475,0.72228247,0.04113133,-0.5392509,-0.38895398,0.34732717,-0.36937797,0.3104707,-0.2135237,0.42808953,0.29567525,0.3725023,0.61874676,0.7560149,0.5574358,-0.074969105,0.2701587,0.63689494,0.19862662,633.4066,869.92676,873.95605,455.31134,533.0769,0.01873779296875,-0.06768798828125,0.99212646484375,-0.530853271484375,2.489776611328125,3.170166015625,1,1.0,1.0,1.0,1.0,85.53
2019-06-12 12:46:20.232,0.2865102,-0.1456475,0.72228247,0.04113133,-0.5392509,-0.38895398,0.34732717,-0.36937797,0.3104707,-0.2135237,0.42808953,0.29567525,0.3725023,0.61874676,0.7560149,0.5574358,-0.074969105,0.2701587,0.63689494,0.19862662,911.8315,836.8865,838.0952,892.8938,723.663,0.01873779296875,-0.06768798828125,0.99212646484375,-0.530853271484375,2.489776611328125,3.170166015625,1,1.0,1.0,1.0,1.0,85.53
2019-06-12 12:46:20.233,0.2865102,-0.1456475,0.72228247,0.04113133,-0.5392509,-0.38895398,0.34732717,-0.36937797,0.3104707,-0.2135237,0.42808953,0.29567525,0.3725023,0.61874676,0.7560149,0.5574358,-0.074969105,0.2701587,0.63689494,0.19862662,1077.4359,836.08057,836.4835,1254.7252,1063.3334,0.01873779296875,-0.06768798828125,0.99212646484375,-0.530853271484375,2.489776611328125,3.170166015625,1,1.0,1.0,1.0,1.0,85.53
2019-06-12 12:46:20.235,0.2865102,-0.1456475,0.72228247,0.04113133,-0.5392509,-0.38895398,0.34732717,-0.36937797,0.3104707,-0.2135237,0.42808953,0.29567525,0.3725023,0.61874676,0.7560149,0.5574358,-0.074969105,0.2701587,0.63689494,0.19862662,782.49084,872.3443,881.6117,816.7399,871.13556,0.01873779296875,-0.06768798828125,0.99212646484375,-0.530853271484375,2.489776611328125,3.170166015625,1,1.0,1.0,1.0,1.0,85.53
2019-06-12 12:46:20.236,0.2865102,-0.1456475,0.72228247,0.04113133,-0.5392509,-0.38895398,0.34732717,-0.36937797,0.3104707,-0.2135237,0.42808953,0.29567525,0.3725023,0.61874676,0.7560149,0.5574358,-0.074969105,0.2701587,0.63689494,0.19862662,607.619,871.9414,882.8205,442.41757,547.98535,0.01873779296875,-0.06768798828125,0.99212646484375,-0.530853271484375,2.489776611328125,3.170166015625,1,1.0,1.0,1.0,1.0,85.53
2019-06-12 12:46:20.237,0.2865102,-0.1456475,0.72228247,0.04113133,-0.5392509,-0.38895398,0.34732717,-0.36937797,0.3104707,-0.2135237,0.42808953,0.29567525,0.3725023,0.61874676,0.7560149,0.5574358,-0.074969105,0.2701587,0.63689494,0.19862662,821.1722,835.2747,853.8095,736.1539,641.06226,0.01873779296875,-0.06768798828125,0.99212646484375,-0.530853271484375,2.489776611328125,3.170166015625,1,1.0,1.0,1.0,1.0,85.53
2019-06-12 12:46:20.238,0.2865102,-0.1456475,0.72228247,0.04113133,-0.5392509,-0.38895398,0.34732717,-0.36937797,0.3104707,-0.2135237,0.42808953,0.29567525,0.3725023,0.61874676,0.7560149,0.5574358,-0.074969105,0.2701587,0.63689494,0.19862662,1085.4945,812.3077,834.4689,1240.2197,1027.0696,0.01873779296875,-0.06768798828125,0.99212646484375,-0.530853271484375,2.489776611328125,3.170166015625,1,1.0,1.0,1.0,1.0,85.53
2019-06-12 12:46:20.239,0.2865102,-0.1456475,0.72228247,0.04113133,-0.5392509,-0.38895398,0.34732717,-0.36937797,0.3104707,-0.2135237,0.42808953,0.29567525,0.3725023,0.61874676,0.7560149,0.5574358,-0.074969105,0.2701587,0.63689494,0.19862662,878.3883,858.24176,863.47986,976.7033,1023.0403,0.01873779296875,-0.06768798828125,0.99212646484375,-0.530853271484375,2.489776611328125,3.170166015625,1,1.0,1.0,1.0,1.0,85.53
2019-06-12 12:46:20.240,0.2605314,-0.22292861,0.72228247,0.07766964,-0.54862446,-0.5700661,0.34732717,-0.28628454,0.3112019,-0.27041465,0.42808953,0.29567525,0.3705736,0.60290617,0.7560149,0.54905784,-0.063007,0.25626296,0.63689494,0.2184602,621.7216,885.2381,887.6557,481.90475,635.82416,0.01873779296875,-0.06768798828125,0.99212646484375,-0.530853271484375,2.489776611328125,3.170166015625,1,1.0,1.0,1.0,1.0,85.53
2019-06-12 12:46:20.283,0.2605314,-0.22292861,0.72228247,0.07766964,-0.54862446,-0.5700661,0.34732717,-0.28628454,0.3112019,-0.27041465,0.42808953,0.29567525,0.3705736,0.60290617,0.7560149,0.54905784,-0.063007,0.25626296,0.63689494,0.2184602,749.85345,855.82416,865.09155,608.022,534.68866,0.01788330078125,-0.064697265625,0.99072265625,0.231781005859375,1.443023681640625,3.372039794921875,1,1.0,1.0,1.0,1.0,85.53
2019-06-12 12:46:20.284,0.2605314,-0.22292861,0.72228247,0.07766964,-0.54862446,-0.5700661,0.34732717,-0.28628454,0.3112019,-0.27041465,0.42808953,0.29567525,0.3705736,0.60290617,0.7560149,0.54905784,-0.063007,0.25626296,0.63689494,0.2184602,1052.8572,818.7546,826.8132,1146.7399,895.31134,0.01788330078125,-0.064697265625,0.99072265625,0.231781005859375,1.443023681640625,3.372039794921875,1,1.0,1.0,1.0,1.0,85.53
2019-06-12 12:46:20.285,0.2605314,-0.22292861,0.72228247,0.07766964,-0.54862446,-0.5700661,0.34732717,-0.28628454,0.3112019,-0.27041465,0.42808953,0.29567525,0.3705736,0.60290617,0.7560149,0.54905784,-0.063007,0.25626296,0.63689494,0.2184602,975.4945,840.5128,850.989,1120.5494,1050.4396,0.01788330078125,-0.064697265625,0.99072265625,0.231781005859375,1.443023681640625,3.372039794921875,1,1.0,1.0,1.0,1.0,85.53
2019-06-12 12:46:20.287,0.2605314,-0.22292861,0.72228247,0.07766964,-0.54862446,-0.5700661,0.34732717,-0.28628454,0.3112019,-0.27041465,0.42808953,0.29567525,0.3705736,0.60290617,0.7560149,0.54905784,-0.063007,0.25626296,0.63689494,0.2184602,655.9707,880.40295,895.31134,563.69965,689.41394,0.01788330078125,-0.064697265625,0.99072265625,0.231781005859375,1.443023681640625,3.372039794921875,1,1.0,1.0,1.0,1.0,85.53
2019-06-12 12:46:20.288,0.2605314,-0.22292861,0.72228247,0.07766964,-0.54862446,-0.5700661,0.34732717,-0.28628454,0.3112019,-0.27041465,0.42808953,0.29567525,0.3705736,0.60290617,0.7560149,0.54905784,-0.063007,0.25626296,0.63689494,0.2184602,677.72894,867.50916,874.35895,504.06595,522.6007,0.01788330078125,-0.064697265625,0.99072265625,0.231781005859375,1.443023681640625,3.372039794921875,1,1.0,1.0,1.0,1.0,85.53
2019-06-12 12:46:20.288,0.2605314,-0.22292861,0.72228247,0.07766964,-0.54862446,-0.5700661,0.34732717,-0.28628454,0.3112019,-0.27041465,0.42808953,0.29567525,0.3705736,0.60290617,0.7560149,0.54905784,-0.063007,0.25626296,0.63689494,0.2184602,986.3736,827.619,826.0073,1011.75824,825.2015,0.01788330078125,-0.064697265625,0.99072265625,0.231781005859375,1.443023681640625,3.372039794921875,1,1.0,1.0,1.0,1.0,85.53
2019-06-12 12:46:20.289,0.2605314,-0.22292861,0.72228247,0.07766964,-0.54862446,-0.5700661,0.34732717,-0.28628454,0.3112019,-0.27041465,0.42808953,0.29567525,0.3705736,0.60290617,0.7560149,0.54905784,-0.063007,0.25626296,0.63689494,0.2184602,1051.2454,841.31866,840.10986,1225.7142,1083.8828,0.01788330078125,-0.064697265625,0.99072265625,0.231781005859375,1.443023681640625,3.372039794921875,1,1.0,1.0,1.0,1.0,85.53
2019-06-12 12:46:20.290,0.2605314,-0.22292861,0.72228247,0.07766964,-0.54862446,-0.5700661,0.34732717,-0.28628454,0.3112019,-0.27041465,0.42808953,0.29567525,0.3705736,0.60290617,0.7560149,0.54905784,-0.063007,0.25626296,0.63689494,0.2184602,723.663,888.0586,886.04395,697.0696,784.5055,0.01788330078125,-0.064697265625,0.99072265625,0.231781005859375,1.443023681640625,3.372039794921875,1,1.0,1.0,1.0,1.0,85.53
2019-06-12 12:46:20.291,0.2605314,-0.22292861,0.72228247,0.07766964,-0.54862446,-0.5700661,0.34732717,-0.28628454,0.3112019,-0.27041465,0.42808953,0.29567525,0.3705736,0.60290617,0.7560149,0.54905784,-0.063007,0.25626296,0.63689494,0.2184602,634.21246,875.16486,875.56775,458.13187,517.76556,0.01788330078125,-0.064697265625,0.99072265625,0.231781005859375,1.443023681640625,3.372039794921875,1,1.0,1.0,1.0,1.0,85.53
2019-06-12 12:46:20.292,0.2605314,-0.22292861,0.72228247,0.07766964,-0.54862446,-0.5700661,0.34732717,-0.28628454,0.3112019,-0.27041465,0.42808953,0.29567525,0.3705736,0.60290617,0.7560149,0.54905784,-0.063007,0.25626296,0.63689494,0.2184602,889.2674,834.87177,834.4689,856.2271,698.68134,0.01788330078125,-0.064697265625,0.99072265625,0.231781005859375,1.443023681640625,3.372039794921875,1,1.0,1.0,1.0,1.0,85.53
2019-06-12 12:46:20.293,0.2605314,-0.22292861,0.72228247,0.07766964,-0.54862446,-0.5700661,0.34732717,-0.28628454,0.3112019,-0.27041465,0.42808953,0.29567525,0.3705736,0.60290617,0.7560149,0.54905784,-0.063007,0.25626296,0.63689494,0.2184602,1076.63,823.9927,828.022,1255.5311,1063.7362,0.01788330078125,-0.064697265625,0.99072265625,0.231781005859375,1.443023681640625,3.372039794921875,1,1.0,1.0,1.0,1.0,85.53
2019-06-12 12:46:20.294,0.2605314,-0.22292861,0.72228247,0.07766964,-0.54862446,-0.5700661,0.34732717,-0.28628454,0.3112019,-0.27041465,0.42808953,0.29567525,0.3705736,0.60290617,0.7560149,0.54905784,-0.063007,0.25626296,0.63689494,0.2184602,811.0989,868.315,875.9707,861.06226,919.0842,0.01788330078125,-0.064697265625,0.99072265625,0.231781005859375,1.443023681640625,3.372039794921875,1,1.0,1.0,1.0,1.0,85.53
2019-06-12 12:46:20.334,0.2605314,-0.22292861,0.72228247,0.07766964,-0.54862446,-0.5700661,0.34732717,-0.28628454,0.3112019,-0.27041465,0.42808953,0.29567525,0.3705736,0.60290617,0.7560149,0.54905784,-0.063007,0.25626296,0.63689494,0.2184602,617.6923,878.7912,884.0293,460.1465,553.6264,0.0189208984375,-0.0638427734375,0.98388671875,-0.34393310546875,2.25799560546875,3.087921142578125,1,1.0,1.0,1.0,1.0,85.53
2019-06-12 12:46:20.335,0.2605314,-0.22292861,0.72228247,0.07766964,-0.54862446,-0.5700661,0.34732717,-0.28628454,0.3112019,-0.27041465,0.42808953,0.29567525,0.3705736,0.60290617,0.7560149,0.54905784,-0.063007,0.25626296,0.63689494,0.2184602,797.8022,838.0952,845.34796,695.4579,596.337,0.0189208984375,-0.0638427734375,0.98388671875,-0.34393310546875,2.25799560546875,3.087921142578125,1,1.0,1.0,1.0,1.0,85.53
2019-06-12 12:46:20.336,0.2605314,-0.22292861,0.72228247,0.07766964,-0.54862446,-0.5700661,0.34732717,-0.28628454,0.3112019,-0.27041465,0.42808953,0.29567525,0.3705736,0.60290617,0.7560149,0.54905784,-0.063007,0.25626296,0.63689494,0.2184602,1077.4359,810.293,818.7546,1210.403,1021.4286,0.0189208984375,-0.0638427734375,0.98388671875,-0.34393310546875,2.25799560546875,3.087921142578125,1,1.0,1.0,1.0,1.0,85.53
2019-06-12 12:46:20.338,0.2605314,-0.22292861,0.72228247,0.07766964,-0.54862446,-0.5700661,0.34732717,-0.28628454,0.3112019,-0.27041465,0.42808953,0.29567525,0.3705736,0.60290617,0.7560149,0.54905784,-0.063007,0.25626296,0.63689494,0.2184602,921.0989,855.42126,863.8828,1025.0549,1045.2014,0.0189208984375,-0.0638427734375,0.98388671875,-0.34393310546875,2.25799560546875,3.087921142578125,1,1.0,1.0,1.0,1.0,85.53
2019-06-12 12:46:20.339,0.2605314,-0.22292861,0.72228247,0.07766964,-0.54862446,-0.5700661,0.34732717,-0.28628454,0.3112019,-0.27041465,0.42808953,0.29567525,0.3705736,0.60290617,0.7560149,0.54905784,-0.063007,0.25626296,0.63689494,0.2184602,639.45056,893.2967,887.25275,496.8132,629.3773,0.0189208984375,-0.0638427734375,0.98388671875,-0.34393310546875,2.25799560546875,3.087921142578125,1,1.0,1.0,1.0,1.0,85.53
2019-06-12 12:46:20.341,0.2605314,-0.22292861,0.72228247,0.07766964,-0.54862446,-0.5700661,0.34732717,-0.28628454,0.3112019,-0.27041465,0.42808953,0.29567525,0.3705736,0.60290617,0.7560149,0.54905784,-0.063007,0.25626296,0.63689494,0.2184602,720.84247,871.13556,857.03296,564.10254,516.1539,0.0189208984375,-0.0638427734375,0.98388671875,-0.34393310546875,2.25799560546875,3.087921142578125,1,1.0,1.0,1.0,1.0,85.53
2019-06-12 12:46:20.342,0.2605314,-0.22292861,0.72228247,0.07766964,-0.54862446,-0.5700661,0.34732717,-0.28628454,0.3112019,-0.27041465,0.42808953,0.29567525,0.3705736,0.60290617,0.7560149,0.54905784,-0.063007,0.25626296,0.63689494,0.2184602,1029.4872,826.4103,826.0073,1110.0732,896.1172,0.0189208984375,-0.0638427734375,0.98388671875,-0.34393310546875,2.25799560546875,3.087921142578125,1,1.0,1.0,1.0,1.0,85.53
2019-06-12 12:46:20.344,0.2605314,-0.22292861,0.72228247,0.07766964,-0.54862446,-0.5700661,0.34732717,-0.28628454,0.3112019,-0.27041465,0.42808953,0.29567525,0.3705736,0.60290617,0.7560149,0.54905784,-0.063007,0.25626296,0.63689494,0.2184602,998.0586,848.5714,853.00366,1154.7986,1108.8645,0.0189208984375,-0.0638427734375,0.98388671875,-0.34393310546875,2.25799560546875,3.087921142578125,1,1.0,1.0,1.0,1.0,85.53
2019-06-12 12:46:20.345,0.2605314,-0.22292861,0.72228247,0.07766964,-0.54862446,-0.5700661,0.34732717,-0.28628454,0.3112019,-0.27041465,0.42808953,0.29567525,0.3705736,0.60290617,0.7560149,0.54905784,-0.063007,0.25626296,0.63689494,0.2184602,678.1319,892.49084,896.1172,597.5458,729.304,0.0189208984375,-0.0638427734375,0.98388671875,-0.34393310546875,2.25799560546875,3.087921142578125,1,1.0,1.0,1.0,1.0,85.53
2019-06-12 12:46:20.346,0.2605314,-0.22292861,0.72228247,0.07766964,-0.54862446,-0.5700661,0.34732717,-0.28628454,0.3112019,-0.27041465,0.42808953,0.29567525,0.3705736,0.60290617,0.7560149,0.54905784,-0.063007,0.25626296,0.63689494,0.2184602,659.19415,855.0183,871.13556,482.71063,516.55676,0.0189208984375,-0.0638427734375,0.98388671875,-0.34393310546875,2.25799560546875,3.087921142578125,1,1.0,1.0,1.0,1.0,85.53
2019-06-12 12:46:20.348,0.2605314,-0.22292861,0.72228247,0.07766964,-0.54862446,-0.5700661,0.34732717,-0.28628454,0.3112019,-0.27041465,0.42808953,0.29567525,0.3705736,0.60290617,0.7560149,0.54905784,-0.063007,0.25626296,0.63689494,0.2184602,954.1392,815.12823,828.4249,962.1978,805.4579,0.0189208984375,-0.0638427734375,0.98388671875,-0.34393310546875,2.25799560546875,3.087921142578125,1,1.0,1.0,1.0,1.0,85.53
2019-06-12 12:46:20.349,0.2605314,-0.22292861,0.72228247,0.07766964,-0.54862446,-0.5700661,0.34732717,-0.28628454,0.3112019,-0.27041465,0.42808953,0.29567525,0.3705736,0.60290617,0.7560149,0.54905784,-0.063007,0.25626296,0.63689494,0.2184602,1067.3627,832.4542,837.6923,1239.8169,1108.8645,0.0189208984375,-0.0638427734375,0.98388671875,-0.34393310546875,2.25799560546875,3.087921142578125,1,1.0,1.0,1.0,1.0,85.53
2019-06-12 12:46:20.436,0.2605314,-0.22292861,0.72228247,0.07766964,-0.54862446,-0.5700661,0.34732717,-0.28628454,0.3112019,-0.27041465,0.42808953,0.29567525,0.3705736,0.60290617,0.7560149,0.54905784,-0.063007,0.25626296,0.63689494,0.2184602,752.674,879.19415,880.40295,739.3773,847.76556,0.017822265625,-0.06500244140625,0.992431640625,-0.2392578125,2.28790283203125,3.222503662109375,1,1.0,1.0,1.0,1.0,85.53
2019-06-12 12:46:20.437,0.23313779,-0.2835031,0.72228247,0.10000272,-0.54260826,-0.7059146,0.34732717,-0.21573983,0.32113487,-0.26734462,0.42808953,0.29567525,0.36768535,0.5942767,0.7560149,0.5480139,-0.059874143,0.25450394,0.63689494,0.23073469,627.76556,879.19415,870.7326,445.2381,530.65936,0.017822265625,-0.06500244140625,0.992431640625,-0.2392578125,2.28790283203125,3.222503662109375,1,1.0,1.0,1.0,1.0,85.53
2019-06-12 12:46:20.443,0.23313779,-0.2835031,0.72228247,0.10000272,-0.54260826,-0.7059146,0.34732717,-0.21573983,0.32113487,-0.26734462,0.42808953,0.29567525,0.36768535,0.5942767,0.7560149,0.5480139,-0.059874143,0.25450394,0.63689494,0.23073469,864.2857,836.8865,831.6484,808.68134,658.7912,0.017822265625,-0.06500244140625,0.992431640625,-0.2392578125,2.28790283203125,3.222503662109375,1,1.0,1.0,1.0,1.0,85.53
2019-06-12 12:46:20.444,0.23313779,-0.2835031,0.72228247,0.10000272,-0.54260826,-0.7059146,0.34732717,-0.21573983,0.32113487,-0.26734462,0.42808953,0.29567525,0.36768535,0.5942767,0.7560149,0.5480139,-0.059874143,0.25450394,0.63689494,0.23073469,1083.0769,831.6484,826.4103,1253.9194,1041.978,0.017822265625,-0.06500244140625,0.992431640625,-0.2392578125,2.28790283203125,3.222503662109375,1,1.0,1.0,1.0,1.0,85.53
2019-06-12 12:46:20.445,0.23313779,-0.2835031,0.72228247,0.10000272,-0.54260826,-0.7059146,0.34732717,-0.21573983,0.32113487,-0.26734462,0.42808953,0.29567525,0.36768535,0.5942767,0.7560149,0.5480139,-0.059874143,0.25450394,0.63689494,0.23073469,838.49817,875.16486,873.95605,904.9817,948.49817,0.017822265625,-0.06500244140625,0.992431640625,-0.2392578125,2.28790283203125,3.222503662109375,1,1.0,1.0,1.0,1.0,85.53
2019-06-12 12:46:20.446,0.23313779,-0.2835031,0.72228247,0.10000272,-0.54260826,-0.7059146,0.34732717,-0.21573983,0.32113487,-0.26734462,0.42808953,0.29567525,0.36768535,0.5942767,0.7560149,0.5480139,-0.059874143,0.25450394,0.63689494,0.23073469,621.7216,880.40295,888.46155,466.5934,578.60803,0.017822265625,-0.06500244140625,0.992431640625,-0.2392578125,2.28790283203125,3.222503662109375,1,1.0,1.0,1.0,1.0,85.53
2019-06-12 12:46:20.447,0.23313779,-0.2835031,0.72228247,0.10000272,-0.54260826,-0.7059146,0.34732717,-0.21573983,0.32113487,-0.26734462,0.42808953,0.29567525,0.36768535,0.5942767,0.7560149,0.5480139,-0.059874143,0.25450394,0.63689494,0.23073469,787.326,850.58606,859.0476,673.69965,589.89014,0.017822265625,-0.06500244140625,0.992431640625,-0.2392578125,2.28790283203125,3.222503662109375,1,1.0,1.0,1.0,1.0,85.53
2019-06-12 12:46:20.448,0.23313779,-0.2835031,0.72228247,0.10000272,-0.54260826,-0.7059146,0.34732717,-0.21573983,0.32113487,-0.26734462,0.42808953,0.29567525,0.36768535,0.5942767,0.7560149,0.5480139,-0.059874143,0.25450394,0.63689494,0.23073469,1073.8096,824.3956,830.4396,1205.1648,975.4945,0.017822265625,-0.06500244140625,0.992431640625,-0.2392578125,2.28790283203125,3.222503662109375,1,1.0,1.0,1.0,1.0,85.53
2019-06-12 12:46:20.449,0.23313779,-0.2835031,0.72228247,0.10000272,-0.54260826,-0.7059146,0.34732717,-0.21573983,0.32113487,-0.26734462,0.42808953,0.29567525,0.36768535,0.5942767,0.7560149,0.5480139,-0.059874143,0.25450394,0.63689494,0.23073469,930.7692,855.42126,855.42126,1060.5128,1034.7252,0.017822265625,-0.06500244140625,0.992431640625,-0.2392578125,2.28790283203125,3.222503662109375,1,1.0,1.0,1.0,1.0,85.53
2019-06-12 12:46:20.451,0.23313779,-0.2835031,0.72228247,0.10000272,-0.54260826,-0.7059146,0.34732717,-0.21573983,0.32113487,-0.26734462,0.42808953,0.29567525,0.36768535,0.5942767,0.7560149,0.5480139,-0.059874143,0.25450394,0.63689494,0.23073469,634.61536,884.43225,880.40295,520.58606,676.1172,0.017822265625,-0.06500244140625,0.992431640625,-0.2392578125,2.28790283203125,3.222503662109375,1,1.0,1.0,1.0,1.0,85.53
2019-06-12 12:46:20.452,0.23313779,-0.2835031,0.72228247,0.10000272,-0.54260826,-0.7059146,0.34732717,-0.21573983,0.32113487,-0.26734462,0.42808953,0.29567525,0.36768535,0.5942767,0.7560149,0.5480139,-0.059874143,0.25450394,0.63689494,0.23073469,711.5751,867.9121,863.47986,552.8205,528.24176,0.017822265625,-0.06500244140625,0.992431640625,-0.2392578125,2.28790283203125,3.222503662109375,1,1.0,1.0,1.0,1.0,85.53
2019-06-12 12:46:20.453,0.23313779,-0.2835031,0.72228247,0.10000272,-0.54260826,-0.7059146,0.34732717,-0.21573983,0.32113487,-0.26734462,0.42808953,0.29567525,0.36768535,0.5942767,0.7560149,0.5480139,-0.059874143,0.25450394,0.63689494,0.23073469,1023.44324,827.619,826.0073,1088.7179,836.08057,0.017822265625,-0.06500244140625,0.992431640625,-0.2392578125,2.28790283203125,3.222503662109375,1,1.0,1.0,1.0,1.0,85.53
2019-06-12 12:46:20.489,0.23313779,-0.2835031,0.72228247,0.10000272,-0.54260826,-0.7059146,0.34732717,-0.21573983,0.32113487,-0.26734462,0.42808953,0.29567525,0.36768535,0.5942767,0.7560149,0.5480139,-0.059874143,0.25450394,0.63689494,0.23073469,1016.5934,834.87177,842.52747,1182.6007,1077.8389,0.019287109375,-0.06646728515625,0.991455078125,-0.55328369140625,1.667327880859375,2.79632568359375,1,1.0,1.0,1.0,1.0,85.53
2019-06-12 12:46:20.490,0.23313779,-0.2835031,0.72228247,0.10000272,-0.54260826,-0.7059146,0.34732717,-0.21573983,0.32113487,-0.26734462,0.42808953,0.29567525,0.36768535,0.5942767,0.7560149,0.5480139,-0.059874143,0.25450394,0.63689494,0.23073469,689.41394,876.3736,886.04395,622.9304,773.6264,0.019287109375,-0.06646728515625,0.991455078125,-0.55328369140625,1.667327880859375,2.79632568359375,1,1.0,1.0,1.0,1.0,85.53
2019-06-12 12:46:20.491,0.23313779,-0.2835031,0.72228247,0.10000272,-0.54260826,-0.7059146,0.34732717,-0.21573983,0.32113487,-0.26734462,0.42808953,0.29567525,0.36768535,0.5942767,0.7560149,0.5480139,-0.059874143,0.25450394,0.63689494,0.23073469,656.3736,866.30035,883.6264,477.47253,506.88644,0.019287109375,-0.06646728515625,0.991455078125,-0.55328369140625,1.667327880859375,2.79632568359375,1,1.0,1.0,1.0,1.0,85.53
2019-06-12 12:46:20.492,0.23313779,-0.2835031,0.72228247,0.10000272,-0.54260826,-0.7059146,0.34732717,-0.21573983,0.32113487,-0.26734462,0.42808953,0.29567525,0.36768535,0.5942767,0.7560149,0.5480139,-0.059874143,0.25450394,0.63689494,0.23073469,940.0366,830.4396,848.5714,939.2308,740.58606,0.019287109375,-0.06646728515625,0.991455078125,-0.55328369140625,1.667327880859375,2.79632568359375,1,1.0,1.0,1.0,1.0,85.53
2019-06-12 12:46:20.493,0.23313779,-0.2835031,0.72228247,0.10000272,-0.54260826,-0.7059146,0.34732717,-0.21573983,0.32113487,-0.26734462,0.42808953,0.29567525,0.36768535,0.5942767,0.7560149,0.5480139,-0.059874143,0.25450394,0.63689494,0.23073469,1066.9597,836.08057,832.4542,1246.6666,1101.6117,0.019287109375,-0.06646728515625,0.991455078125,-0.55328369140625,1.667327880859375,2.79632568359375,1,1.0,1.0,1.0,1.0,85.53
2019-06-12 12:46:20.494,0.23313779,-0.2835031,0.72228247,0.10000272,-0.54260826,-0.7059146,0.34732717,-0.21573983,0.32113487,-0.26734462,0.42808953,0.29567525,0.36768535,0.5942767,0.7560149,0.5480139,-0.059874143,0.25450394,0.63689494,0.23073469,766.3736,877.98535,871.9414,772.01465,877.5824,0.019287109375,-0.06646728515625,0.991455078125,-0.55328369140625,1.667327880859375,2.79632568359375,1,1.0,1.0,1.0,1.0,85.53
2019-06-12 12:46:20.495,0.23313779,-0.2835031,0.72228247,0.10000272,-0.54260826,-0.7059146,0.34732717,-0.21573983,0.32113487,-0.26734462,0.42808953,0.29567525,0.36768535,0.5942767,0.7560149,0.5480139,-0.059874143,0.25450394,0.63689494,0.23073469,631.39197,878.7912,882.01465,451.28204,528.6447,0.019287109375,-0.06646728515625,0.991455078125,-0.55328369140625,1.667327880859375,2.79632568359375,1,1.0,1.0,1.0,1.0,85.53
2019-06-12 12:46:20.496,0.23313779,-0.2835031,0.72228247,0.10000272,-0.54260826,-0.7059146,0.34732717,-0.21573983,0.32113487,-0.26734462,0.42808953,0.29567525,0.36768535,0.5942767,0.7560149,0.5480139,-0.059874143,0.25450394,0.63689494,0.23073469,846.55676,843.73627,846.1539,777.25275,648.315,0.019287109375,-0.06646728515625,0.991455078125,-0.55328369140625,1.667327880859375,2.79632568359375,1,1.0,1.0,1.0,1.0,85.53
2019-06-12 12:46:20.497,0.23313779,-0.2835031,0.72228247,0.10000272,-0.54260826,-0.7059146,0.34732717,-0.21573983,0.32113487,-0.26734462,0.42808953,0.29567525,0.36768535,0.5942767,0.7560149,0.5480139,-0.059874143,0.25450394,0.63689494,0.23073469,1081.0623,819.15753,820.7692,1238.2051,1048.8279,0.019287109375,-0.06646728515625,0.991455078125,-0.55328369140625,1.667327880859375,2.79632568359375,1,1.0,1.0,1.0,1.0,85.53
2019-06-12 12:46:20.498,0.23313779,-0.2835031,0.72228247,0.10000272,-0.54260826,-0.7059146,0.34732717,-0.21573983,0.32113487,-0.26734462,0.42808953,0.29567525,0.36768535,0.5942767,0.7560149,0.5480139,-0.059874143,0.25450394,0.63689494,0.23073469,865.89746,862.27106,863.47986,935.2015,981.53845,0.019287109375,-0.06646728515625,0.991455078125,-0.55328369140625,1.667327880859375,2.79632568359375,1,1.0,1.0,1.0,1.0,85.53
2019-06-12 12:46:20.499,0.23313779,-0.2835031,0.72228247,0.10000272,-0.54260826,-0.7059146,0.34732717,-0.21573983,0.32113487,-0.26734462,0.42808953,0.29567525,0.36768535,0.5942767,0.7560149,0.5480139,-0.059874143,0.25450394,0.63689494,0.23073469,624.94507,877.98535,885.64105,467.39926,593.5165,0.019287109375,-0.06646728515625,0.991455078125,-0.55328369140625,1.667327880859375,2.79632568359375,1,1.0,1.0,1.0,1.0,85.53
2019-06-12 12:46:20.500,0.23313779,-0.2835031,0.72228247,0.10000272,-0.54260826,-0.7059146,0.34732717,-0.21573983,0.32113487,-0.26734462,0.42808953,0.29567525,0.36768535,0.5942767,0.7560149,0.5480139,-0.059874143,0.25450394,0.63689494,0.23073469,764.35895,853.4066,856.63007,629.3773,546.77655,0.019287109375,-0.06646728515625,0.991455078125,-0.55328369140625,1.667327880859375,2.79632568359375,1,1.0,1.0,1.0,1.0,85.53
2019-06-12 12:46:20.536,0.23313779,-0.2835031,0.72228247,0.10000272,-0.54260826,-0.7059146,0.34732717,-0.21573983,0.32113487,-0.26734462,0.42808953,0.29567525,0.36768535,0.5942767,0.7560149,0.5480139,-0.059874143,0.25450394,0.63689494,0.23073469,1062.9304,826.8132,825.6044,1175.751,950.5128,0.015869140625,-0.06658935546875,0.98541259765625,-0.336456298828125,2.97576904296875,2.534637451171875,1,1.0,1.0,1.0,1.0,85.53
2019-06-12 12:46:20.538,0.23313779,-0.2835031,0.72228247,0.10000272,-0.54260826,-0.7059146,0.34732717,-0.21573983,0.32113487,-0.26734462,0.42808953,0.29567525,0.36768535,0.5942767,0.7560149,0.5480139,-0.059874143,0.25450394,0.63689494,0.23073469,967.4359,860.65936,865.4945,1102.8206,1059.7069,0.015869140625,-0.06658935546875,0.98541259765625,-0.336456298828125,2.97576904296875,2.534637451171875,1,1.0,1.0,1.0,1.0,85.53
2019-06-12 12:46:20.539,0.23313779,-0.2835031,0.72228247,0.10000272,-0.54260826,-0.7059146,0.34732717,-0.21573983,0.32113487,-0.26734462,0.42808953,0.29567525,0.36768535,0.5942767,0.7560149,0.5480139,-0.059874143,0.25450394,0.63689494,0.23073469,658.3883,887.25275,901.3553,551.2088,672.0879,0.015869140625,-0.06658935546875,0.98541259765625,-0.336456298828125,2.97576904296875,2.534637451171875,1,1.0,1.0,1.0,1.0,85.53
2019-06-12 12:46:20.540,0.21408895,-0.31386343,0.72228247,0.114317365,-0.53871304,-0.76271343,0.34732717,-0.18899183,0.32216033,-0.2540184,0.42808953,0.3080101,0.36477298,0.58345133,0.7560149,0.55202484,-0.052866142,0.25405183,0.63689494,0.24964623,684.57874,859.0476,860.2564,520.989,510.91574,0.015869140625,-0.06658935546875,0.98541259765625,-0.336456298828125,2.97576904296875,2.534637451171875,1,1.0,1.0,1.0,1.0,85.53
2019-06-12 12:46:20.546,0.21408895,-0.31386343,0.72228247,0.114317365,-0.53871304,-0.76271343,0.34732717,-0.18899183,0.32216033,-0.2540184,0.42808953,0.3080101,0.36477298,0.58345133,0.7560149,0.55202484,-0.052866142,0.25405183,0.63689494,0.24964623,994.0293,828.022,817.5458,1036.7399,817.9487,0.015869140625,-0.06658935546875,0.98541259765625,-0.336456298828125,2.97576904296875,2.534637451171875,1,1.0,1.0,1.0,1.0,85.53
2019-06-12 12:46:20.547,0.21408895,-0.31386343,0.72228247,0.114317365,-0.53871304,-0.76271343,0.34732717,-0.18899183,0.32216033,-0.2540184,0.42808953,0.3080101,0.36477298,0.58345133,0.7560149,0.55202484,-0.052866142,0.25405183,0.63689494,0.24964623,1035.5311,844.1392,846.9597,1200.7325,1075.4213,0.015869140625,-0.06658935546875,0.98541259765625,-0.336456298828125,2.97576904296875,2.534637451171875,1,1.0,1.0,1.0,1.0,85.53
2019-06-12 12:46:20.548,0.21408895,-0.31386343,0.72228247,0.114317365,-0.53871304,-0.76271343,0.34732717,-0.18899183,0.32216033,-0.2540184,0.42808953,0.3080101,0.36477298,0.58345133,0.7560149,0.55202484,-0.052866142,0.25405183,0.63689494,0.24964623,701.9048,889.67035,888.0586,654.35895,763.95605,0.015869140625,-0.06658935546875,0.98541259765625,-0.336456298828125,2.97576904296875,2.534637451171875,1,1.0,1.0,1.0,1.0,85.53
2019-06-12 12:46:20.549,0.21408895,-0.31386343,0.72228247,0.114317365,-0.53871304,-0.76271343,0.34732717,-0.18899183,0.32216033,-0.2540184,0.42808953,0.3080101,0.36477298,0.58345133,0.7560149,0.55202484,-0.052866142,0.25405183,0.63689494,0.24964623,633.00366,877.98535,868.315,455.31134,507.28937,0.015869140625,-0.06658935546875,0.98541259765625,-0.336456298828125,2.97576904296875,2.534637451171875,1,1.0,1.0,1.0,1.0,85.53
2019-06-12 12:46:20.550,0.21408895,-0.31386343,0.72228247,0.114317365,-0.53871304,-0.76271343,0.34732717,-0.18899183,0.32216033,-0.2540184,0.42808953,0.3080101,0.36477298,0.58345133,0.7560149,0.55202484,-0.052866142,0.25405183,0.63689494,0.24964623,906.99634,835.2747,833.663,887.6557,718.8278,0.015869140625,-0.06658935546875,0.98541259765625,-0.336456298828125,2.97576904296875,2.534637451171875,1,1.0,1.0,1.0,1.0,85.53
2019-06-12 12:46:20.551,0.21408895,-0.31386343,0.72228247,0.114317365,-0.53871304,-0.76271343,0.34732717,-0.18899183,0.32216033,-0.2540184,0.42808953,0.3080101,0.36477298,0.58345133,0.7560149,0.55202484,-0.052866142,0.25405183,0.63689494,0.24964623,1076.227,823.9927,839.304,1259.1575,1062.5275,0.015869140625,-0.06658935546875,0.98541259765625,-0.336456298828125,2.97576904296875,2.534637451171875,1,1.0,1.0,1.0,1.0,85.53
2019-06-12 12:46:20.552,0.21408895,-0.31386343,0.72228247,0.114317365,-0.53871304,-0.76271343,0.34732717,-0.18899183,0.32216033,-0.2540184,0.42808953,0.3080101,0.36477298,0.58345133,0.7560149,0.55202484,-0.052866142,0.25405183,0.63689494,0.24964623,788.5348,866.30035,880.80585,827.2161,879.59705,0.015869140625,-0.06658935546875,0.98541259765625,-0.336456298828125,2.97576904296875,2.534637451171875,1,1.0,1.0,1.0,1.0,85.53
2019-06-12 12:46:20.554,0.21408895,-0.31386343,0.72228247,0.114317365,-0.53871304,-0.76271343,0.34732717,-0.18899183,0.32216033,-0.2540184,0.42808953,0.3080101,0.36477298,0.58345133,0.7560149,0.55202484,-0.052866142,0.25405183,0.63689494,0.24964623,618.49817,868.315,876.77655,450.87912,537.50916,0.015869140625,-0.06658935546875,0.98541259765625,-0.336456298828125,2.97576904296875,2.534637451171875,1,1.0,1.0,1.0,1.0,85.53
2019-06-12 12:46:20.589,0.21408895,-0.31386343,0.72228247,0.114317365,-0.53871304,-0.76271343,0.34732717,-0.18899183,0.32216033,-0.2540184,0.42808953,0.3080101,0.36477298,0.58345133,0.7560149,0.55202484,-0.052866142,0.25405183,0.63689494,0.24964623,813.5165,830.84247,845.7509,732.9304,607.2161,0.015869140625,-0.06658935546875,0.98541259765625,-0.336456298828125,2.97576904296875,2.534637451171875,1,1.0,1.0,1.0,1.0,85.53
2019-06-12 12:46:20.591,0.21408895,-0.31386343,0.72228247,0.114317365,-0.53871304,-0.76271343,0.34732717,-0.18899183,0.32216033,-0.2540184,0.42808953,0.3080101,0.36477298,0.58345133,0.7560149,0.55202484,-0.052866142,0.25405183,0.63689494,0.24964623,1070.586,823.9927,832.8571,1235.3846,1002.49084,0.015869140625,-0.06658935546875,0.98541259765625,-0.336456298828125,2.97576904296875,2.534637451171875,1,1.0,1.0,1.0,1.0,85.53
2019-06-12 12:46:20.591,0.21408895,-0.31386343,0.72228247,0.114317365,-0.53871304,-0.76271343,0.34732717,-0.18899183,0.32216033,-0.2540184,0.42808953,0.3080101,0.36477298,0.58345133,0.7560149,0.55202484,-0.052866142,0.25405183,0.63689494,0.24964623,875.56775,869.12085,865.89746,985.16486,985.56775,0.015869140625,-0.06658935546875,0.98541259765625,-0.336456298828125,2.97576904296875,2.534637451171875,1,1.0,1.0,1.0,1.0,85.53
2019-06-12 12:46:20.592,0.21408895,-0.31386343,0.72228247,0.114317365,-0.53871304,-0.76271343,0.34732717,-0.18899183,0.32216033,-0.2540184,0.42808953,0.3080101,0.36477298,0.58345133,0.7560149,0.55202484,-0.052866142,0.25405183,0.63689494,0.24964623,605.6044,879.19415,874.35895,475.05493,622.52747,0.015869140625,-0.06658935546875,0.98541259765625,-0.336456298828125,2.97576904296875,2.534637451171875,1,1.0,1.0,1.0,1.0,85.53
2019-06-12 12:46:20.594,0.21408895,-0.31386343,0.72228247,0.114317365,-0.53871304,-0.76271343,0.34732717,-0.18899183,0.32216033,-0.2540184,0.42808953,0.3080101,0.36477298,0.58345133,0.7560149,0.55202484,-0.052866142,0.25405183,0.63689494,0.24964623,731.7216,855.82416,848.1685,591.9048,559.2674,0.015869140625,-0.06658935546875,0.98541259765625,-0.336456298828125,2.97576904296875,2.534637451171875,1,1.0,1.0,1.0,1.0,85.53
2019-06-12 12:46:20.595,0.21408895,-0.31386343,0.72228247,0.114317365,-0.53871304,-0.76271343,0.34732717,-0.18899183,0.32216033,-0.2540184,0.42808953,0.3080101,0.36477298,0.58345133,0.7560149,0.55202484,-0.052866142,0.25405183,0.63689494,0.24964623,1046.4103,831.2454,828.8278,1142.7106,895.31134,0.015869140625,-0.06658935546875,0.98541259765625,-0.336456298828125,2.97576904296875,2.534637451171875,1,1.0,1.0,1.0,1.0,85.53
2019-06-12 12:46:20.595,0.21408895,-0.31386343,0.72228247,0.114317365,-0.53871304,-0.76271343,0.34732717,-0.18899183,0.32216033,-0.2540184,0.42808953,0.3080101,0.36477298,0.58345133,0.7560149,0.55202484,-0.052866142,0.25405183,0.63689494,0.24964623,975.09155,848.97437,857.8388,1121.7583,1038.3517,0.015869140625,-0.06658935546875,0.98541259765625,-0.336456298828125,2.97576904296875,2.534637451171875,1,1.0,1.0,1.0,1.0,85.53
2019-06-12 12:46:20.596,0.21408895,-0.31386343,0.72228247,0.114317365,-0.53871304,-0.76271343,0.34732717,-0.18899183,0.32216033,-0.2540184,0.42808953,0.3080101,0.36477298,0.58345133,0.7560149,0.55202484,-0.052866142,0.25405183,0.63689494,0.24964623,658.7912,873.95605,887.25275,560.07324,696.26373,0.015869140625,-0.06658935546875,0.98541259765625,-0.336456298828125,2.97576904296875,2.534637451171875,1,1.0,1.0,1.0,1.0,85.53
2019-06-12 12:46:20.598,0.21408895,-0.31386343,0.72228247,0.114317365,-0.53871304,-0.76271343,0.34732717,-0.18899183,0.32216033,-0.2540184,0.42808953,0.3080101,0.36477298,0.58345133,0.7560149,0.55202484,-0.052866142,0.25405183,0.63689494,0.24964623,675.7143,858.6447,866.7033,504.46887,525.0183,0.015869140625,-0.06658935546875,0.98541259765625,-0.336456298828125,2.97576904296875,2.534637451171875,1,1.0,1.0,1.0,1.0,85.53
2019-06-12 12:46:20.599,0.21408895,-0.31386343,0.72228247,0.114317365,-0.53871304,-0.76271343,0.34732717,-0.18899183,0.32216033,-0.2540184,0.42808953,0.3080101,0.36477298,0.58345133,0.7560149,0.55202484,-0.052866142,0.25405183,0.63689494,0.24964623,986.77655,833.663,836.4835,1015.38464,778.86444,0.015869140625,-0.06658935546875,0.98541259765625,-0.336456298828125,2.97576904296875,2.534637451171875,1,1.0,1.0,1.0,1.0,85.53
2019-06-12 12:46:20.600,0.21408895,-0.31386343,0.72228247,0.114317365,-0.53871304,-0.76271343,0.34732717,-0.18899183,0.32216033,-0.2540184,0.42808953,0.3080101,0.36477298,0.58345133,0.7560149,0.55202484,-0.052866142,0.25405183,0.63689494,0.24964623,1058.0952,843.73627,850.18317,1230.5494,1061.7216,0.015869140625,-0.06658935546875,0.98541259765625,-0.336456298828125,2.97576904296875,2.534637451171875,1,1.0,1.0,1.0,1.0,85.53
2019-06-12 12:46:20.601,0.21408895,-0.31386343,0.72228247,0.114317365,-0.53871304,-0.76271343,0.34732717,-0.18899183,0.32216033,-0.2540184,0.42808953,0.3080101,0.36477298,0.58345133,0.7560149,0.55202484,-0.052866142,0.25405183,0.63689494,0.24964623,728.49817,881.6117,882.8205,701.9048,818.3516,0.015869140625,-0.06658935546875,0.98541259765625,-0.336456298828125,2.97576904296875,2.534637451171875,1,1.0,1.0,1.0,1.0,85.53
2019-06-12 12:46:20.636,0.21408895,-0.31386343,0.72228247,0.114317365,-0.53871304,-0.76271343,0.34732717,-0.18899183,0.32216033,-0.2540184,0.42808953,0.3080101,0.36477298,0.58345133,0.7560149,0.55202484,-0.052866142,0.25405183,0.63689494,0.24964623,639.0476,868.71796,872.3443,460.9524,505.27472,0.01611328125,-0.0660400390625,0.99188232421875,-0.52337646484375,2.669219970703125,2.953338623046875,1,1.0,1.0,1.0,1.0,85.53
2019-06-12 12:46:20.638,0.21408895,-0.31386343,0.72228247,0.114317365,-0.53871304,-0.76271343,0.34732717,-0.18899183,0.32216033,-0.2540184,0.42808953,0.3080101,0.36477298,0.58345133,0.7560149,0.55202484,-0.052866142,0.25405183,0.63689494,0.24964623,894.10254,823.9927,837.6923,852.6007,657.1795,0.01611328125,-0.0660400390625,0.99188232421875,-0.52337646484375,2.669219970703125,2.953338623046875,1,1.0,1.0,1.0,1.0,85.53
2019-06-12 12:46:20.638,0.21408895,-0.31386343,0.72228247,0.114317365,-0.53871304,-0.76271343,0.34732717,-0.18899183,0.32216033,-0.2540184,0.42808953,0.3080101,0.36477298,0.58345133,0.7560149,0.55202484,-0.052866142,0.25405183,0.63689494,0.24964623,1080.6593,828.4249,823.9927,1255.5311,1045.2014,0.01611328125,-0.0660400390625,0.99188232421875,-0.52337646484375,2.669219970703125,2.953338623046875,1,1.0,1.0,1.0,1.0,85.53
2019-06-12 12:46:20.639,0.21408895,-0.31386343,0.72228247,0.114317365,-0.53871304,-0.76271343,0.34732717,-0.18899183,0.32216033,-0.2540184,0.42808953,0.3080101,0.36477298,0.58345133,0.7560149,0.55202484,-0.052866142,0.25405183,0.63689494,0.24964623,809.89014,878.7912,858.24176,858.24176,922.3077,0.01611328125,-0.0660400390625,0.99188232421875,-0.52337646484375,2.669219970703125,2.953338623046875,1,1.0,1.0,1.0,1.0,85.53
2019-06-12 12:46:20.640,0.21408895,-0.31386343,0.72228247,0.114317365,-0.53871304,-0.76271343,0.34732717,-0.18899183,0.32216033,-0.2540184,0.42808953,0.3080101,0.36477298,0.58345133,0.7560149,0.55202484,-0.052866142,0.25405183,0.63689494,0.24964623,618.49817,881.2088,867.9121,454.10257,558.0586,0.01611328125,-0.0660400390625,0.99188232421875,-0.52337646484375,2.669219970703125,2.953338623046875,1,1.0,1.0,1.0,1.0,85.53
2019-06-12 12:46:20.641,0.20057574,-0.32904616,0.72228247,0.1134741,-0.5398479,-0.77406424,0.34732717,-0.19083045,0.32216033,-0.21836843,0.42808953,0.32174182,0.3601718,0.5658123,0.7560149,0.55392057,-0.052260224,0.2566058,0.63689494,0.25557142,802.6374,845.34796,849.7802,705.9341,591.0989,0.01611328125,-0.0660400390625,0.99188232421875,-0.52337646484375,2.669219970703125,2.953338623046875,1,1.0,1.0,1.0,1.0,85.53
2019-06-12 12:46:20.648,0.20057574,-0.32904616,0.72228247,0.1134741,-0.5398479,-0.77406424,0.34732717,-0.19083045,0.32216033,-0.21836843,0.42808953,0.32174182,0.3601718,0.5658123,0.7560149,0.55392057,-0.052260224,0.2566058,0.63689494,0.25557142,1072.1978,817.1429,830.4396,1212.4176,978.315,0.01611328125,-0.0660400390625,0.99188232421875,-0.52337646484375,2.669219970703125,2.953338623046875,1,1.0,1.0,1.0,1.0,85.53
2019-06-12 12:46:20.649,0.20057574,-0.32904616,0.72228247,0.1134741,-0.5398479,-0.77406424,0.34732717,-0.19083045,0.32216033,-0.21836843,0.42808953,0.32174182,0.3601718,0.5658123,0.7560149,0.55392057,-0.052260224,0.2566058,0.63689494,0.25557142,902.1612,848.1685,862.674,1018.20514,1004.5055,0.01611328125,-0.0660400390625,0.99188232421875,-0.52337646484375,2.669219970703125,2.953338623046875,1,1.0,1.0,1.0,1.0,85.53
2019-06-12 12:46:20.650,0.20057574,-0.32904616,0.72228247,0.1134741,-0.5398479,-0.77406424,0.34732717,-0.19083045,0.32216033,-0.21836843,0.42808953,0.32174182,0.3601718,0.5658123,0.7560149,0.55392057,-0.052260224,0.2566058,0.63689494,0.25557142,623.3333,883.6264,890.4762,500.03662,623.73627,0.01611328125,-0.0660400390625,0.99188232421875,-0.52337646484375,2.669219970703125,2.953338623046875,1,1.0,1.0,1.0,1.0,85.53
2019-06-12 12:46:20.652,0.20057574,-0.32904616,0.72228247,0.1134741,-0.5398479,-0.77406424,0.34732717,-0.19083045,0.32216033,-0.21836843,0.42808953,0.32174182,0.3601718,0.5658123,0.7560149,0.55392057,-0.052260224,0.2566058,0.63689494,0.25557142,718.022,860.65936,861.8681,572.1612,543.5531,0.01611328125,-0.0660400390625,0.99188232421875,-0.52337646484375,2.669219970703125,2.953338623046875,1,1.0,1.0,1.0,1.0,85.53
2019-06-12 12:46:20.653,0.20057574,-0.32904616,0.72228247,0.1134741,-0.5398479,-0.77406424,0.34732717,-0.19083045,0.32216033,-0.21836843,0.42808953,0.32174182,0.3601718,0.5658123,0.7560149,0.55392057,-0.052260224,0.2566058,0.63689494,0.25557142,1027.8755,829.2308,825.2015,1115.7142,926.337,0.01611328125,-0.0660400390625,0.99188232421875,-0.52337646484375,2.669219970703125,2.953338623046875,1,1.0,1.0,1.0,1.0,85.53
2019-06-12 12:46:20.654,0.20057574,-0.32904616,0.72228247,0.1134741,-0.5398479,-0.77406424,0.34732717,-0.19083045,0.32216033,-0.21836843,0.42808953,0.32174182,0.3601718,0.5658123,0.7560149,0.55392057,-0.052260224,0.2566058,0.63689494,0.25557142,988.3883,849.7802,851.79486,1155.2014,1099.1941,0.01611328125,-0.0660400390625,0.99188232421875,-0.52337646484375,2.669219970703125,2.953338623046875,1,1.0,1.0,1.0,1.0,85.53
2019-06-12 12:46:20.689,0.20057574,-0.32904616,0.72228247,0.1134741,-0.5398479,-0.77406424,0.34732717,-0.19083045,0.32216033,-0.21836843,0.42808953,0.32174182,0.3601718,0.5658123,0.7560149,0.55392057,-0.052260224,0.2566058,0.63689494,0.25557142,669.2674,879.59705,890.07324,596.7399,737.3626,0.01495361328125,-0.065673828125,0.981201171875,-0.67291259765625,2.03369140625,2.7215576171875,1,1.0,1.0,1.0,1.0,85.53
2019-06-12 12:46:20.690,0.20057574,-0.32904616,0.72228247,0.1134741,-0.5398479,-0.77406424,0.34732717,-0.19083045,0.32216033,-0.21836843,0.42808953,0.32174182,0.3601718,0.5658123,0.7560149,0.55392057,-0.052260224,0.2566058,0.63689494,0.25557142,659.19415,860.2564,873.1502,487.14285,533.47986,0.01495361328125,-0.065673828125,0.981201171875,-0.67291259765625,2.03369140625,2.7215576171875,1,1.0,1.0,1.0,1.0,85.53
2019-06-12 12:46:20.692,0.20057574,-0.32904616,0.72228247,0.1134741,-0.5398479,-0.77406424,0.34732717,-0.19083045,0.32216033,-0.21836843,0.42808953,0.32174182,0.3601718,0.5658123,0.7560149,0.55392057,-0.052260224,0.2566058,0.63689494,0.25557142,945.6777,823.5897,828.8278,961.39197,802.23444,0.01495361328125,-0.065673828125,0.981201171875,-0.67291259765625,2.03369140625,2.7215576171875,1,1.0,1.0,1.0,1.0,85.53
2019-06-12 12:46:20.693,0.20057574,-0.32904616,0.72228247,0.1134741,-0.5398479,-0.77406424,0.34732717,-0.19083045,0.32216033,-0.21836843,0.42808953,0.32174182,0.3601718,0.5658123,0.7560149,0.55392057,-0.052260224,0.2566058,0.63689494,0.25557142,1051.6483,840.10986,836.08057,1234.9817,1089.5238,0.01495361328125,-0.065673828125,0.981201171875,-0.67291259765625,2.03369140625,2.7215576171875,1,1.0,1.0,1.0,1.0,85.53
2019-06-12 12:46:20.694,0.20057574,-0.32904616,0.72228247,0.1134741,-0.5398479,-0.77406424,0.34732717,-0.19083045,0.32216033,-0.21836843,0.42808953,0.32174182,0.3601718,0.5658123,0.7560149,0.55392057,-0.052260224,0.2566058,0.63689494,0.25557142,743.8095,887.25275,884.83514,737.3626,837.28937,0.01495361328125,-0.065673828125,0.981201171875,-0.67291259765625,2.03369140625,2.7215576171875,1,1.0,1.0,1.0,1.0,85.53
2019-06-12 12:46:20.695,0.20057574,-0.32904616,0.72228247,0.1134741,-0.5398479,-0.77406424,0.34732717,-0.19083045,0.32216033,-0.21836843,0.42808953,0.32174182,0.3601718,0.5658123,0.7560149,0.55392057,-0.052260224,0.2566058,0.63689494,0.25557142,631.39197,877.98535,879.59705,450.4762,541.13556,0.01495361328125,-0.065673828125,0.981201171875,-0.67291259765625,2.03369140625,2.7215576171875,1,1.0,1.0,1.0,1.0,85.53
2019-06-12 12:46:20.696,0.20057574,-0.32904616,0.72228247,0.1134741,-0.5398479,-0.77406424,0.34732717,-0.19083045,0.32216033,-0.21836843,0.42808953,0.32174182,0.3601718,0.5658123,0.7560149,0.55392057,-0.052260224,0.2566058,0.63689494,0.25557142,866.7033,837.6923,838.9011,805.05493,673.69965,0.01495361328125,-0.065673828125,0.981201171875,-0.67291259765625,2.03369140625,2.7215576171875,1,1.0,1.0,1.0,1.0,85.53
2019-06-12 12:46:20.697,0.20057574,-0.32904616,0.72228247,0.1134741,-0.5398479,-0.77406424,0.34732717,-0.19083045,0.32216033,-0.21836843,0.42808953,0.32174182,0.3601718,0.5658123,0.7560149,0.55392057,-0.052260224,0.2566058,0.63689494,0.25557142,1085.8975,824.7985,823.1868,1243.4432,1037.5458,0.01495361328125,-0.065673828125,0.981201171875,-0.67291259765625,2.03369140625,2.7215576171875,1,1.0,1.0,1.0,1.0,85.53
2019-06-12 12:46:20.698,0.20057574,-0.32904616,0.72228247,0.1134741,-0.5398479,-0.77406424,0.34732717,-0.19083045,0.32216033,-0.21836843,0.42808953,0.32174182,0.3601718,0.5658123,0.7560149,0.55392057,-0.052260224,0.2566058,0.63689494,0.25557142,840.9158,865.09155,868.315,904.17584,917.47253,0.01495361328125,-0.065673828125,0.981201171875,-0.67291259765625,2.03369140625,2.7215576171875,1,1.0,1.0,1.0,1.0,85.53
2019-06-12 12:46:20.699,0.20057574,-0.32904616,0.72228247,0.1134741,-0.5398479,-0.77406424,0.34732717,-0.19083045,0.32216033,-0.21836843,0.42808953,0.32174182,0.3601718,0.5658123,0.7560149,0.55392057,-0.052260224,0.2566058,0.63689494,0.25557142,615.2747,880.0,880.80585,456.92307,568.93774,0.01495361328125,-0.065673828125,0.981201171875,-0.67291259765625,2.03369140625,2.7215576171875,1,1.0,1.0,1.0,1.0,85.53
2019-06-12 12:46:20.700,0.20057574,-0.32904616,0.72228247,0.1134741,-0.5398479,-0.77406424,0.34732717,-0.19083045,0.32216033,-0.21836843,0.42808953,0.32174182,0.3601718,0.5658123,0.7560149,0.55392057,-0.052260224,0.2566058,0.63689494,0.25557142,780.07324,848.5714,842.9304,655.56775,594.3223,0.01495361328125,-0.065673828125,0.981201171875,-0.67291259765625,2.03369140625,2.7215576171875,1,1.0,1.0,1.0,1.0,85.53
2019-06-12 12:46:20.701,0.20057574,-0.32904616,0.72228247,0.1134741,-0.5398479,-0.77406424,0.34732717,-0.19083045,0.32216033,-0.21836843,0.42808953,0.32174182,0.3601718,0.5658123,0.7560149,0.55392057,-0.052260224,0.2566058,0.63689494,0.25557142,1074.6154,815.9341,827.619,1198.3151,954.5421,0.01495361328125,-0.065673828125,0.981201171875,-0.67291259765625,2.03369140625,2.7215576171875,1,1.0,1.0,1.0,1.0,85.53
2019-06-12 12:46:20.703,0.20057574,-0.32904616,0.72228247,0.1134741,-0.5398479,-0.77406424,0.34732717,-0.19083045,0.32216033,-0.21836843,0.42808953,0.32174182,0.3601718,0.5658123,0.7560149,0.55392057,-0.052260224,0.2566058,0.63689494,0.25557142,941.2454,858.24176,871.9414,1068.1685,984.7619,0.0184326171875,-0.06292724609375,0.99163818359375,0.0299072265625,2.205657958984375,3.072967529296875,1,1.0,1.0,1.0,1.0,85.53
2019-06-12 12:46:20.704,0.20057574,-0.32904616,0.72228247,0.1134741,-0.5398479,-0.77406424,0.34732717,-0.19083045,0.32216033,-0.21836843,0.42808953,0.32174182,0.3601718,0.5658123,0.7560149,0.55392057,-0.052260224,0.2566058,0.63689494,0.25557142,636.63007,892.0879,891.28204,521.39197,631.39197,0.0184326171875,-0.06292724609375,0.99163818359375,0.0299072265625,2.205657958984375,3.072967529296875,1,1.0,1.0,1.0,1.0,85.53
2019-06-12 12:46:20.705,0.20057574,-0.32904616,0.72228247,0.1134741,-0.5398479,-0.77406424,0.34732717,-0.19083045,0.32216033,-0.21836843,0.42808953,0.32174182,0.3601718,0.5658123,0.7560149,0.55392057,-0.052260224,0.2566058,0.63689494,0.25557142,693.44324,865.09155,865.89746,536.7033,527.4359,0.0184326171875,-0.06292724609375,0.99163818359375,0.0299072265625,2.205657958984375,3.072967529296875,1,1.0,1.0,1.0,1.0,85.53
2019-06-12 12:46:20.706,0.20057574,-0.32904616,0.72228247,0.1134741,-0.5398479,-0.77406424,0.34732717,-0.19083045,0.32216033,-0.21836843,0.42808953,0.32174182,0.3601718,0.5658123,0.7560149,0.55392057,-0.052260224,0.2566058,0.63689494,0.25557142,1008.93774,827.619,835.2747,1074.6154,845.34796,0.0184326171875,-0.06292724609375,0.99163818359375,0.0299072265625,2.205657958984375,3.072967529296875,1,1.0,1.0,1.0,1.0,85.53
2019-06-12 12:46:20.708,0.20057574,-0.32904616,0.72228247,0.1134741,-0.5398479,-0.77406424,0.34732717,-0.19083045,0.32216033,-0.21836843,0.42808953,0.32174182,0.3601718,0.5658123,0.7560149,0.55392057,-0.052260224,0.2566058,0.63689494,0.25557142,1016.5934,837.6923,852.1978,1185.0183,1065.751,0.0184326171875,-0.06292724609375,0.99163818359375,0.0299072265625,2.205657958984375,3.072967529296875,1,1.0,1.0,1.0,1.0,85.53
2019-06-12 12:46:20.709,0.20057574,-0.32904616,0.72228247,0.1134741,-0.5398479,-0.77406424,0.34732717,-0.19083045,0.32216033,-0.21836843,0.42808953,0.32174182,0.3601718,0.5658123,0.7560149,0.55392057,-0.052260224,0.2566058,0.63689494,0.25557142,687.3993,878.7912,890.4762,628.5714,744.61536,0.0184326171875,-0.06292724609375,0.99163818359375,0.0299072265625,2.205657958984375,3.072967529296875,1,1.0,1.0,1.0,1.0,85.53
2019-06-12 12:46:20.710,0.20057574,-0.32904616,0.72228247,0.1134741,-0.5398479,-0.77406424,0.34732717,-0.19083045,0.32216033,-0.21836843,0.42808953,0.32174182,0.3601718,0.5658123,0.7560149,0.55392057,-0.052260224,0.2566058,0.63689494,0.25557142,652.3443,869.12085,875.56775,474.652,506.0806,0.0184326171875,-0.06292724609375,0.99163818359375,0.0299072265625,2.205657958984375,3.072967529296875,1,1.0,1.0,1.0,1.0,85.53
2019-06-12 12:46:20.711,0.19567233,-0.3458652,0.50862205,0.099787645,-0.54774046,-0.775248,-0.20279028,-0.20586449,0.32216033,-0.20407198,-0.6820566,0.3504231,0.3509982,0.54233634,0.23115228,0.54845583,-0.051609784,0.26215598,-0.34093836,0.25368845,936.4103,828.4249,829.2308,925.12823,738.97437,0.0184326171875,-0.06292724609375,0.99163818359375,0.0299072265625,2.205657958984375,3.072967529296875,1,1.0,1.0,1.0,1.0,85.53
2019-06-12 12:46:20.717,0.19567233,-0.3458652,0.50862205,0.099787645,-0.54774046,-0.775248,-0.20279028,-0.20586449,0.32216033,-0.20407198,-0.6820566,0.3504231,0.3509982,0.54233634,0.23115228,0.54845583,-0.051609784,0.26215598,-0.34093836,0.25368845,1072.1978,836.4835,831.2454,1249.0842,1085.4945,0.0184326171875,-0.06292724609375,0.99163818359375,0.0299072265625,2.205657958984375,3.072967529296875,1,1.0,1.0,1.0,1.0,85.53
2019-06-12 12:46:20.718,0.19567233,-0.3458652,0.50862205,0.099787645,-0.54774046,-0.775248,-0.20279028,-0.20586449,0.32216033,-0.20407198,-0.6820566,0.3504231,0.3509982,0.54233634,0.23115228,0.54845583,-0.051609784,0.26215598,-0.34093836,0.25368845,765.56775,880.40295,880.80585,783.69965,894.90845,0.0184326171875,-0.06292724609375,0.99163818359375,0.0299072265625,2.205657958984375,3.072967529296875,1,1.0,1.0,1.0,1.0,85.53
2019-06-12 12:46:20.719,0.19567233,-0.3458652,0.50862205,0.099787645,-0.54774046,-0.775248,-0.20279028,-0.20586449,0.32216033,-0.20407198,-0.6820566,0.3504231,0.3509982,0.54233634,0.23115228,0.54845583,-0.051609784,0.26215598,-0.34093836,0.25368845,622.1245,875.56775,882.01465,452.08792,567.72894,0.0184326171875,-0.06292724609375,0.99163818359375,0.0299072265625,2.205657958984375,3.072967529296875,1,1.0,1.0,1.0,1.0,85.53
2019-06-12 12:46:20.720,0.19567233,-0.3458652,0.50862205,0.099787645,-0.54774046,-0.775248,-0.20279028,-0.20586449,0.32216033,-0.20407198,-0.6820566,0.3504231,0.3509982,0.54233634,0.23115228,0.54845583,-0.051609784,0.26215598,-0.34093836,0.25368845,850.18317,841.7216,851.39197,774.0293,644.2857,0.0184326171875,-0.06292724609375,0.99163818359375,0.0299072265625,2.205657958984375,3.072967529296875,1,1.0,1.0,1.0,1.0,85.53
2019-06-12 12:46:20.722,0.19567233,-0.3458652,0.50862205,0.099787645,-0.54774046,-0.775248,-0.20279028,-0.20586449,0.32216033,-0.20407198,-0.6820566,0.3504231,0.3509982,0.54233634,0.23115228,0.54845583,-0.051609784,0.26215598,-0.34093836,0.25368845,1089.1208,826.4103,836.08057,1243.8462,1039.1575,0.01812744140625,-0.06573486328125,0.99371337890625,-1.128997802734375,1.039276123046875,3.431854248046875,1,1.0,1.0,1.0,1.0,85.53
2019-06-12 12:46:20.722,0.19567233,-0.3458652,0.50862205,0.099787645,-0.54774046,-0.775248,-0.20279028,-0.20586449,0.32216033,-0.20407198,-0.6820566,0.3504231,0.3509982,0.54233634,0.23115228,0.54845583,-0.051609784,0.26215598,-0.34093836,0.25368845,864.2857,863.8828,868.315,945.2747,983.5531,0.01812744140625,-0.06573486328125,0.99371337890625,-1.128997802734375,1.039276123046875,3.431854248046875,1,1.0,1.0,1.0,1.0,85.53
2019-06-12 12:46:20.724,0.19567233,-0.3458652,0.50862205,0.099787645,-0.54774046,-0.775248,-0.20279028,-0.20586449,0.32216033,-0.20407198,-0.6820566,0.3504231,0.3509982,0.54233634,0.23115228,0.54845583,-0.051609784,0.26215598,-0.34093836,0.25368845,622.9304,878.3883,883.6264,471.8315,602.7839,0.01812744140625,-0.06573486328125,0.99371337890625,-1.128997802734375,1.039276123046875,3.431854248046875,1,1.0,1.0,1.0,1.0,85.53
2019-06-12 12:46:20.724,0.19567233,-0.3458652,0.50862205,0.099787645,-0.54774046,-0.775248,-0.20279028,-0.20586449,0.32216033,-0.20407198,-0.6820566,0.3504231,0.3509982,0.54233634,0.23115228,0.54845583,-0.051609784,0.26215598,-0.34093836,0.25368845,770.0,852.6007,859.85345,633.8095,550.40295,0.01812744140625,-0.06573486328125,0.99371337890625,-1.128997802734375,1.039276123046875,3.431854248046875,1,1.0,1.0,1.0,1.0,85.53
2019-06-12 12:46:20.725,0.19567233,-0.3458652,0.50862205,0.099787645,-0.54774046,-0.775248,-0.20279028,-0.20586449,0.32216033,-0.20407198,-0.6820566,0.3504231,0.3509982,0.54233634,0.23115228,0.54845583,-0.051609784,0.26215598,-0.34093836,0.25368845,1065.751,816.337,828.4249,1170.5128,915.4579,0.01812744140625,-0.06573486328125,0.99371337890625,-1.128997802734375,1.039276123046875,3.431854248046875,1,1.0,1.0,1.0,1.0,85.53
2019-06-12 12:46:20.726,0.19567233,-0.3458652,0.50862205,0.099787645,-0.54774046,-0.775248,-0.20279028,-0.20586449,0.32216033,-0.20407198,-0.6820566,0.3504231,0.3509982,0.54233634,0.23115228,0.54845583,-0.051609784,0.26215598,-0.34093836,0.25368845,956.55676,843.73627,853.8095,1087.1062,1049.6337,0.01812744140625,-0.06573486328125,0.99371337890625,-1.128997802734375,1.039276123046875,3.431854248046875,1,1.0,1.0,1.0,1.0,85.53
2019-06-12 12:46:20.727,0.19567233,-0.3458652,0.50862205,0.099787645,-0.54774046,-0.775248,-0.20279028,-0.20586449,0.32216033,-0.20407198,-0.6820566,0.3504231,0.3509982,0.54233634,0.23115228,0.54845583,-0.051609784,0.26215598,-0.34093836,0.25368845,644.2857,887.6557,884.43225,539.92676,684.17584,0.01812744140625,-0.06573486328125,0.99371337890625,-1.128997802734375,1.039276123046875,3.431854248046875,1,1.0,1.0,1.0,1.0,85.53
2019-06-12 12:46:20.728,0.19567233,-0.3458652,0.50862205,0.099787645,-0.54774046,-0.775248,-0.20279028,-0.20586449,0.32216033,-0.20407198,-0.6820566,0.3504231,0.3509982,0.54233634,0.23115228,0.54845583,-0.051609784,0.26215598,-0.34093836,0.25368845,684.57874,861.06226,864.68866,529.0476,509.30402,0.01812744140625,-0.06573486328125,0.99371337890625,-1.128997802734375,1.039276123046875,3.431854248046875,1,1.0,1.0,1.0,1.0,85.53
2019-06-12 12:46:20.729,0.19567233,-0.3458652,0.50862205,0.099787645,-0.54774046,-0.775248,-0.20279028,-0.20586449,0.32216033,-0.20407198,-0.6820566,0.3504231,0.3509982,0.54233634,0.23115228,0.54845583,-0.051609784,0.26215598,-0.34093836,0.25368845,994.43225,813.91943,826.8132,1048.4249,830.4396,0.01812744140625,-0.06573486328125,0.99371337890625,-1.128997802734375,1.039276123046875,3.431854248046875,1,1.0,1.0,1.0,1.0,85.53
2019-06-12 12:46:20.730,0.19567233,-0.3458652,0.50862205,0.099787645,-0.54774046,-0.775248,-0.20279028,-0.20586449,0.32216033,-0.20407198,-0.6820566,0.3504231,0.3509982,0.54233634,0.23115228,0.54845583,-0.051609784,0.26215598,-0.34093836,0.25368845,1031.9048,837.6923,838.49817,1207.1794,1099.1941,0.01812744140625,-0.06573486328125,0.99371337890625,-1.128997802734375,1.039276123046875,3.431854248046875,1,1.0,1.0,1.0,1.0,85.53
2019-06-12 12:46:20.730,0.19567233,-0.3458652,0.50862205,0.099787645,-0.54774046,-0.775248,-0.20279028,-0.20586449,0.32216033,-0.20407198,-0.6820566,0.3504231,0.3509982,0.54233634,0.23115228,0.54845583,-0.051609784,0.26215598,-0.34093836,0.25368845,704.7253,892.49084,884.0293,664.43225,786.9231,0.01812744140625,-0.06573486328125,0.99371337890625,-1.128997802734375,1.039276123046875,3.431854248046875,1,1.0,1.0,1.0,1.0,85.53
2019-06-12 12:46:20.731,0.19567233,-0.3458652,0.50862205,0.099787645,-0.54774046,-0.775248,-0.20279028,-0.20586449,0.32216033,-0.20407198,-0.6820566,0.3504231,0.3509982,0.54233634,0.23115228,0.54845583,-0.051609784,0.26215598,-0.34093836,0.25368845,642.674,887.6557,880.0,466.5934,496.8132,0.01812744140625,-0.06573486328125,0.99371337890625,-1.128997802734375,1.039276123046875,3.431854248046875,1,1.0,1.0,1.0,1.0,85.53
2019-06-12 12:46:20.766,0.19567233,-0.3458652,0.50862205,0.099787645,-0.54774046,-0.775248,-0.20279028,-0.20586449,0.32216033,-0.20407198,-0.6820566,0.3504231,0.3509982,0.54233634,0.23115228,0.54845583,-0.051609784,0.26215598,-0.34093836,0.25368845,914.2491,837.6923,839.707,891.685,704.7253,0.01812744140625,-0.06573486328125,0.99371337890625,-1.128997802734375,1.039276123046875,3.431854248046875,1,1.0,1.0,1.0,1.0,85.53
2019-06-12 12:46:20.767,0.19567233,-0.3458652,0.50862205,0.099787645,-0.54774046,-0.775248,-0.20279028,-0.20586449,0.32216033,-0.20407198,-0.6820566,0.3504231,0.3509982,0.54233634,0.23115228,0.54845583,-0.051609784,0.26215598,-0.34093836,0.25368845,1077.4359,822.381,832.4542,1255.5311,1089.1208,0.01812744140625,-0.06573486328125,0.99371337890625,-1.128997802734375,1.039276123046875,3.431854248046875,1,1.0,1.0,1.0,1.0,85.53
2019-06-12 12:46:20.768,0.19567233,-0.3458652,0.50862205,0.099787645,-0.54774046,-0.775248,-0.20279028,-0.20586449,0.32216033,-0.20407198,-0.6820566,0.3504231,0.3509982,0.54233634,0.23115228,0.54845583,-0.051609784,0.26215598,-0.34093836,0.25368845,795.38464,871.13556,878.3883,823.1868,899.7436,0.01812744140625,-0.06573486328125,0.99371337890625,-1.128997802734375,1.039276123046875,3.431854248046875,1,1.0,1.0,1.0,1.0,85.53
2019-06-12 12:46:20.769,0.19567233,-0.3458652,0.50862205,0.099787645,-0.54774046,-0.775248,-0.20279028,-0.20586449,0.32216033,-0.20407198,-0.6820566,0.3504231,0.3509982,0.54233634,0.23115228,0.54845583,-0.051609784,0.26215598,-0.34093836,0.25368845,626.55676,879.59705,884.83514,458.93774,546.3736,0.01812744140625,-0.06573486328125,0.99371337890625,-1.128997802734375,1.039276123046875,3.431854248046875,1,1.0,1.0,1.0,1.0,85.53
2019-06-12 12:46:20.770,0.19567233,-0.3458652,0.50862205,0.099787645,-0.54774046,-0.775248,-0.20279028,-0.20586449,0.32216033,-0.20407198,-0.6820566,0.3504231,0.3509982,0.54233634,0.23115228,0.54845583,-0.051609784,0.26215598,-0.34093836,0.25368845,826.0073,846.1539,844.1392,748.6447,609.6337,0.01812744140625,-0.06573486328125,0.99371337890625,-1.128997802734375,1.039276123046875,3.431854248046875,1,1.0,1.0,1.0,1.0,85.53
2019-06-12 12:46:20.771,0.19567233,-0.3458652,0.50862205,0.099787645,-0.54774046,-0.775248,-0.20279028,-0.20586449,0.32216033,-0.20407198,-0.6820566,0.3504231,0.3509982,0.54233634,0.23115228,0.54845583,-0.051609784,0.26215598,-0.34093836,0.25368845,1083.0769,817.5458,823.9927,1245.4579,1001.28204,0.01812744140625,-0.06573486328125,0.99371337890625,-1.128997802734375,1.039276123046875,3.431854248046875,1,1.0,1.0,1.0,1.0,85.53
2019-06-12 12:46:20.772,0.19567233,-0.3458652,0.50862205,0.099787645,-0.54774046,-0.775248,-0.20279028,-0.20586449,0.32216033,-0.20407198,-0.6820566,0.3504231,0.3509982,0.54233634,0.23115228,0.54845583,-0.051609784,0.26215598,-0.34093836,0.25368845,890.4762,858.24176,868.71796,1000.07324,996.04395,0.01812744140625,-0.06573486328125,0.99371337890625,-1.128997802734375,1.039276123046875,3.431854248046875,1,1.0,1.0,1.0,1.0,85.53
2019-06-12 12:46:20.773,0.19567233,-0.3458652,0.50862205,0.099787645,-0.54774046,-0.775248,-0.20279028,-0.20586449,0.32216033,-0.20407198,-0.6820566,0.3504231,0.3509982,0.54233634,0.23115228,0.54845583,-0.051609784,0.26215598,-0.34093836,0.25368845,633.8095,885.64105,887.25275,484.32236,614.0659,0.01812744140625,-0.06573486328125,0.99371337890625,-1.128997802734375,1.039276123046875,3.431854248046875,1,1.0,1.0,1.0,1.0,85.53
2019-06-12 12:46:20.774,0.19567233,-0.3458652,0.50862205,0.099787645,-0.54774046,-0.775248,-0.20279028,-0.20586449,0.32216033,-0.20407198,-0.6820566,0.3504231,0.3509982,0.54233634,0.23115228,0.54845583,-0.051609784,0.26215598,-0.34093836,0.25368845,742.6007,849.3773,853.8095,579.41394,556.4469,0.01812744140625,-0.06573486328125,0.99371337890625,-1.128997802734375,1.039276123046875,3.431854248046875,1,1.0,1.0,1.0,1.0,85.53
2019-06-12 12:46:20.775,0.19398072,-0.35635614,0.4513294,0.07816579,-0.55609626,-0.7736409,-0.23820563,-0.2229977,0.3245988,-0.21812797,-0.6815029,0.35839275,0.33918947,0.5163736,0.21862814,0.5372387,-0.049923703,0.2686504,-0.3148019,0.24639203,1044.7986,810.696,824.7985,1132.6373,927.9487,0.01812744140625,-0.06573486328125,0.99371337890625,-1.128997802734375,1.039276123046875,3.431854248046875,1,1.0,1.0,1.0,1.0,85.53
2019-06-12 12:46:20.781,0.19398072,-0.35635614,0.4513294,0.07816579,-0.55609626,-0.7736409,-0.23820563,-0.2229977,0.3245988,-0.21812797,-0.6815029,0.35839275,0.33918947,0.5163736,0.21862814,0.5372387,-0.049923703,0.2686504,-0.3148019,0.24639203,978.71796,843.73627,859.0476,1124.5787,1059.7069,0.01812744140625,-0.06573486328125,0.99371337890625,-1.128997802734375,1.039276123046875,3.431854248046875,1,1.0,1.0,1.0,1.0,85.53
2019-06-12 12:46:20.782,0.19398072,-0.35635614,0.4513294,0.07816579,-0.55609626,-0.7736409,-0.23820563,-0.2229977,0.3245988,-0.21812797,-0.6815029,0.35839275,0.33918947,0.5163736,0.21862814,0.5372387,-0.049923703,0.2686504,-0.3148019,0.24639203,655.56775,889.2674,894.5055,559.2674,685.38464,0.01812744140625,-0.06573486328125,0.99371337890625,-1.128997802734375,1.039276123046875,3.431854248046875,1,1.0,1.0,1.0,1.0,85.53
2019-06-12 12:46:20.783,0.19398072,-0.35635614,0.4513294,0.07816579,-0.55609626,-0.7736409,-0.23820563,-0.2229977,0.3245988,-0.21812797,-0.6815029,0.35839275,0.33918947,0.5163736,0.21862814,0.5372387,-0.049923703,0.2686504,-0.3148019,0.24639203,666.04395,872.74725,876.3736,495.20148,506.48352,0.01953125,-0.07110595703125,0.9833984375,-1.18133544921875,0.889739990234375,3.00567626953125,1,1.0,1.0,1.0,1.0,85.53
2019-06-12 12:46:20.784,0.19398072,-0.35635614,0.4513294,0.07816579,-0.55609626,-0.7736409,-0.23820563,-0.2229977,0.3245988,-0.21812797,-0.6815029,0.35839275,0.33918947,0.5163736,0.21862814,0.5372387,-0.049923703,0.2686504,-0.3148019,0.24639203,966.2271,828.022,834.87177,992.8205,778.86444,0.01953125,-0.07110595703125,0.9833984375,-1.18133544921875,0.889739990234375,3.00567626953125,1,1.0,1.0,1.0,1.0,85.53
2019-06-12 12:46:20.785,0.19398072,-0.35635614,0.4513294,0.07816579,-0.55609626,-0.7736409,-0.23820563,-0.2229977,0.3245988,-0.21812797,-0.6815029,0.35839275,0.33918947,0.5163736,0.21862814,0.5372387,-0.049923703,0.2686504,-0.3148019,0.24639203,1034.3224,819.5604,838.9011,1212.8206,1068.9744,0.01953125,-0.07110595703125,0.9833984375,-1.18133544921875,0.889739990234375,3.00567626953125,1,1.0,1.0,1.0,1.0,85.53
2019-06-12 12:46:20.786,0.19398072,-0.35635614,0.4513294,0.07816579,-0.55609626,-0.7736409,-0.23820563,-0.2229977,0.3245988,-0.21812797,-0.6815029,0.35839275,0.33918947,0.5163736,0.21862814,0.5372387,-0.049923703,0.2686504,-0.3148019,0.24639203,711.1722,872.3443,879.19415,695.4579,821.5751,0.01953125,-0.07110595703125,0.9833984375,-1.18133544921875,0.889739990234375,3.00567626953125,1,1.0,1.0,1.0,1.0,85.53
2019-06-12 12:46:20.787,0.19398072,-0.35635614,0.4513294,0.07816579,-0.55609626,-0.7736409,-0.23820563,-0.2229977,0.3245988,-0.21812797,-0.6815029,0.35839275,0.33918947,0.5163736,0.21862814,0.5372387,-0.049923703,0.2686504,-0.3148019,0.24639203,627.3626,878.7912,868.315,447.25275,528.24176,0.01953125,-0.07110595703125,0.9833984375,-1.18133544921875,0.889739990234375,3.00567626953125,1,1.0,1.0,1.0,1.0,85.53
2019-06-12 12:46:20.788,0.19398072,-0.35635614,0.4513294,0.07816579,-0.55609626,-0.7736409,-0.23820563,-0.2229977,0.3245988,-0.21812797,-0.6815029,0.35839275,0.33918947,0.5163736,0.21862814,0.5372387,-0.049923703,0.2686504,-0.3148019,0.24639203,888.0586,839.304,828.8278,832.4542,689.41394,0.01953125,-0.07110595703125,0.9833984375,-1.18133544921875,0.889739990234375,3.00567626953125,1,1.0,1.0,1.0,1.0,85.53
2019-06-12 12:46:20.789,0.19398072,-0.35635614,0.4513294,0.07816579,-0.55609626,-0.7736409,-0.23820563,-0.2229977,0.3245988,-0.21812797,-0.6815029,0.35839275,0.33918947,0.5163736,0.21862814,0.5372387,-0.049923703,0.2686504,-0.3148019,0.24639203,1083.8828,832.8571,824.7985,1247.4725,1041.978,0.01953125,-0.07110595703125,0.9833984375,-1.18133544921875,0.889739990234375,3.00567626953125,1,1.0,1.0,1.0,1.0,85.53
2019-06-12 12:46:20.790,0.19398072,-0.35635614,0.4513294,0.07816579,-0.55609626,-0.7736409,-0.23820563,-0.2229977,0.3245988,-0.21812797,-0.6815029,0.35839275,0.33918947,0.5163736,0.21862814,0.5372387,-0.049923703,0.2686504,-0.3148019,0.24639203,818.3516,878.7912,876.3736,865.09155,891.685,0.01953125,-0.07110595703125,0.9833984375,-1.18133544921875,0.889739990234375,3.00567626953125,1,1.0,1.0,1.0,1.0,85.53
2019-06-12 12:46:20.790,0.19398072,-0.35635614,0.4513294,0.07816579,-0.55609626,-0.7736409,-0.23820563,-0.2229977,0.3245988,-0.21812797,-0.6815029,0.35839275,0.33918947,0.5163736,0.21862814,0.5372387,-0.049923703,0.2686504,-0.3148019,0.24639203,611.2454,875.56775,878.7912,445.64102,542.3443,0.01953125,-0.07110595703125,0.9833984375,-1.18133544921875,0.889739990234375,3.00567626953125,1,1.0,1.0,1.0,1.0,85.53
2019-06-12 12:46:20.791,0.19398072,-0.35635614,0.4513294,0.07816579,-0.55609626,-0.7736409,-0.23820563,-0.2229977,0.3245988,-0.21812797,-0.6815029,0.35839275,0.33918947,0.5163736,0.21862814,0.5372387,-0.049923703,0.2686504,-0.3148019,0.24639203,790.9524,840.10986,842.9304,689.81683,615.6777,0.01953125,-0.07110595703125,0.9833984375,-1.18133544921875,0.889739990234375,3.00567626953125,1,1.0,1.0,1.0,1.0,85.53
2019-06-12 12:46:20.792,0.19398072,-0.35635614,0.4513294,0.07816579,-0.55609626,-0.7736409,-0.23820563,-0.2229977,0.3245988,-0.21812797,-0.6815029,0.35839275,0.33918947,0.5163736,0.21862814,0.5372387,-0.049923703,0.2686504,-0.3148019,0.24639203,1077.033,816.7399,824.3956,1215.238,1014.57874,0.01953125,-0.07110595703125,0.9833984375,-1.18133544921875,0.889739990234375,3.00567626953125,1,1.0,1.0,1.0,1.0,85.53
2019-06-12 12:46:20.793,0.19398072,-0.35635614,0.4513294,0.07816579,-0.55609626,-0.7736409,-0.23820563,-0.2229977,0.3245988,-0.21812797,-0.6815029,0.35839275,0.33918947,0.5163736,0.21862814,0.5372387,-0.049923703,0.2686504,-0.3148019,0.24639203,909.011,848.5714,859.85345,1023.8461,1021.02563,0.01953125,-0.07110595703125,0.9833984375,-1.18133544921875,0.889739990234375,3.00567626953125,1,1.0,1.0,1.0,1.0,85.53
2019-06-12 12:46:20.827,0.19398072,-0.35635614,0.4513294,0.07816579,-0.55609626,-0.7736409,-0.23820563,-0.2229977,0.3245988,-0.21812797,-0.6815029,0.35839275,0.33918947,0.5163736,0.21862814,0.5372387,-0.049923703,0.2686504,-0.3148019,0.24639203,624.1392,880.40295,884.0293,494.79852,639.85345,0.02496337890625,-0.068115234375,0.98724365234375,0.022430419921875,1.83929443359375,3.050537109375,1,1.0,1.0,1.0,1.0,85.53
2019-06-12 12:46:20.828,0.19398072,-0.35635614,0.4513294,0.07816579,-0.55609626,-0.7736409,-0.23820563,-0.2229977,0.3245988,-0.21812797,-0.6815029,0.35839275,0.33918947,0.5163736,0.21862814,0.5372387,-0.049923703,0.2686504,-0.3148019,0.24639203,713.5897,860.2564,856.2271,564.10254,554.83514,0.02496337890625,-0.068115234375,0.98724365234375,0.022430419921875,1.83929443359375,3.050537109375,1,1.0,1.0,1.0,1.0,85.53
2019-06-12 12:46:20.829,0.19398072,-0.35635614,0.4513294,0.07816579,-0.55609626,-0.7736409,-0.23820563,-0.2229977,0.3245988,-0.21812797,-0.6815029,0.35839275,0.33918947,0.5163736,0.21862814,0.5372387,-0.049923703,0.2686504,-0.3148019,0.24639203,1026.2638,829.6337,820.7692,1109.6703,901.75824,0.02496337890625,-0.068115234375,0.98724365234375,0.022430419921875,1.83929443359375,3.050537109375,1,1.0,1.0,1.0,1.0,85.53
2019-06-12 12:46:20.831,0.19398072,-0.35635614,0.4513294,0.07816579,-0.55609626,-0.7736409,-0.23820563,-0.2229977,0.3245988,-0.21812797,-0.6815029,0.35839275,0.33918947,0.5163736,0.21862814,0.5372387,-0.049923703,0.2686504,-0.3148019,0.24639203,1000.07324,854.21246,842.9304,1155.6044,1080.2565,0.02496337890625,-0.068115234375,0.98724365234375,0.022430419921875,1.83929443359375,3.050537109375,1,1.0,1.0,1.0,1.0,85.53
2019-06-12 12:46:20.832,0.19398072,-0.35635614,0.4513294,0.07816579,-0.55609626,-0.7736409,-0.23820563,-0.2229977,0.3245988,-0.21812797,-0.6815029,0.35839275,0.33918947,0.5163736,0.21862814,0.5372387,-0.049923703,0.2686504,-0.3148019,0.24639203,668.0586,889.67035,878.3883,596.7399,743.00366,0.02496337890625,-0.068115234375,0.98724365234375,0.022430419921875,1.83929443359375,3.050537109375,1,1.0,1.0,1.0,1.0,85.53
2019-06-12 12:46:20.833,0.19398072,-0.35635614,0.4513294,0.07816579,-0.55609626,-0.7736409,-0.23820563,-0.2229977,0.3245988,-0.21812797,-0.6815029,0.35839275,0.33918947,0.5163736,0.21862814,0.5372387,-0.049923703,0.2686504,-0.3148019,0.24639203,657.1795,867.50916,865.89746,487.14285,511.72162,0.02496337890625,-0.068115234375,0.98724365234375,0.022430419921875,1.83929443359375,3.050537109375,1,1.0,1.0,1.0,1.0,85.53
2019-06-12 12:46:20.834,0.19398072,-0.35635614,0.4513294,0.07816579,-0.55609626,-0.7736409,-0.23820563,-0.2229977,0.3245988,-0.21812797,-0.6815029,0.35839275,0.33918947,0.5163736,0.21862814,0.5372387,-0.049923703,0.2686504,-0.3148019,0.24639203,954.1392,821.978,829.2308,969.45056,749.85345,0.02496337890625,-0.068115234375,0.98724365234375,0.022430419921875,1.83929443359375,3.050537109375,1,1.0,1.0,1.0,1.0,85.53
2019-06-12 12:46:20.835,0.19398072,-0.35635614,0.4513294,0.07816579,-0.55609626,-0.7736409,-0.23820563,-0.2229977,0.3245988,-0.21812797,-0.6815029,0.35839275,0.33918947,0.5163736,0.21862814,0.5372387,-0.049923703,0.2686504,-0.3148019,0.24639203,1057.6923,834.4689,827.619,1242.2344,1059.3041,0.02496337890625,-0.068115234375,0.98724365234375,0.022430419921875,1.83929443359375,3.050537109375,1,1.0,1.0,1.0,1.0,85.53
2019-06-12 12:46:20.836,0.19398072,-0.35635614,0.4513294,0.07816579,-0.55609626,-0.7736409,-0.23820563,-0.2229977,0.3245988,-0.21812797,-0.6815029,0.35839275,0.33918947,0.5163736,0.21862814,0.5372387,-0.049923703,0.2686504,-0.3148019,0.24639203,739.7802,880.40295,871.9414,741.79486,844.1392,0.02496337890625,-0.068115234375,0.98724365234375,0.022430419921875,1.83929443359375,3.050537109375,1,1.0,1.0,1.0,1.0,85.53
2019-06-12 12:46:20.837,0.19398072,-0.35635614,0.4513294,0.07816579,-0.55609626,-0.7736409,-0.23820563,-0.2229977,0.3245988,-0.21812797,-0.6815029,0.35839275,0.33918947,0.5163736,0.21862814,0.5372387,-0.049923703,0.2686504,-0.3148019,0.24639203,623.73627,878.3883,872.74725,456.52014,553.22345,0.02496337890625,-0.068115234375,0.98724365234375,0.022430419921875,1.83929443359375,3.050537109375,1,1.0,1.0,1.0,1.0,85.53
2019-06-12 12:46:20.837,0.19398072,-0.35635614,0.4513294,0.07816579,-0.55609626,-0.7736409,-0.23820563,-0.2229977,0.3245988,-0.21812797,-0.6815029,0.35839275,0.33918947,0.5163736,0.21862814,0.5372387,-0.049923703,0.2686504,-0.3148019,0.24639203,873.95605,850.18317,845.7509,823.1868,646.30035,0.02496337890625,-0.068115234375,0.98724365234375,0.022430419921875,1.83929443359375,3.050537109375,1,1.0,1.0,1.0,1.0,85.53
2019-06-12 12:46:20.839,0.19306871,-0.3696787,0.38954577,0.07203766,-0.5685754,-0.77409065,-0.2784025,-0.22256655,0.34019032,-0.22339012,-0.6788271,0.3574947,0.32618165,0.4899777,0.22845697,0.50536454,-0.050949533,0.27586392,-0.3015677,0.23780122,1094.762,823.9927,833.2601,1268.8279,1026.2638,0.02496337890625,-0.068115234375,0.98724365234375,0.022430419921875,1.83929443359375,3.050537109375,1,1.0,1.0,1.0,1.0,85.53
2019-06-12 12:46:20.879,0.19306871,-0.3696787,0.38954577,0.07203766,-0.5685754,-0.77409065,-0.2784025,-0.22256655,0.34019032,-0.22339012,-0.6788271,0.3574947,0.32618165,0.4899777,0.22845697,0.50536454,-0.050949533,0.27586392,-0.3015677,0.23780122,836.8865,856.2271,860.2564,910.2198,968.24176,0.0224609375,-0.06500244140625,0.988037109375,-0.04486083984375,1.936492919921875,3.117828369140625,1,1.0,1.0,1.0,1.0,85.53
2019-06-12 12:46:20.880,0.19306871,-0.3696787,0.38954577,0.07203766,-0.5685754,-0.77409065,-0.2784025,-0.22256655,0.34019032,-0.22339012,-0.6788271,0.3574947,0.32618165,0.4899777,0.22845697,0.50536454,-0.050949533,0.27586392,-0.3015677,0.23780122,610.4396,882.4176,875.9707,454.5055,587.0696,0.0224609375,-0.06500244140625,0.988037109375,-0.04486083984375,1.936492919921875,3.117828369140625,1,1.0,1.0,1.0,1.0,85.53
2019-06-12 12:46:20.881,0.19306871,-0.3696787,0.38954577,0.07203766,-0.5685754,-0.77409065,-0.2784025,-0.22256655,0.34019032,-0.22339012,-0.6788271,0.3574947,0.32618165,0.4899777,0.22845697,0.50536454,-0.050949533,0.27586392,-0.3015677,0.23780122,767.5824,858.6447,848.1685,648.315,575.78754,0.0224609375,-0.06500244140625,0.988037109375,-0.04486083984375,1.936492919921875,3.117828369140625,1,1.0,1.0,1.0,1.0,85.53
2019-06-12 12:46:20.882,0.19306871,-0.3696787,0.38954577,0.07203766,-0.5685754,-0.77409065,-0.2784025,-0.22256655,0.34019032,-0.22339012,-0.6788271,0.3574947,0.32618165,0.4899777,0.22845697,0.50536454,-0.050949533,0.27586392,-0.3015677,0.23780122,1052.8572,822.7839,812.71063,1179.7803,974.2857,0.0224609375,-0.06500244140625,0.988037109375,-0.04486083984375,1.936492919921875,3.117828369140625,1,1.0,1.0,1.0,1.0,85.53
2019-06-12 12:46:20.883,0.19306871,-0.3696787,0.38954577,0.07203766,-0.5685754,-0.77409065,-0.2784025,-0.22256655,0.34019032,-0.22339012,-0.6788271,0.3574947,0.32618165,0.4899777,0.22845697,0.50536454,-0.050949533,0.27586392,-0.3015677,0.23780122,927.1429,845.34796,849.3773,1057.2894,1044.7986,0.0224609375,-0.06500244140625,0.988037109375,-0.04486083984375,1.936492919921875,3.117828369140625,1,1.0,1.0,1.0,1.0,85.53
2019-06-12 12:46:20.886,0.19306871,-0.3696787,0.38954577,0.07203766,-0.5685754,-0.77409065,-0.2784025,-0.22256655,0.34019032,-0.22339012,-0.6788271,0.3574947,0.32618165,0.4899777,0.22845697,0.50536454,-0.050949533,0.27586392,-0.3015677,0.23780122,631.79486,885.2381,881.6117,520.58606,647.9121,0.0224609375,-0.06500244140625,0.988037109375,-0.04486083984375,1.936492919921875,3.117828369140625,1,1.0,1.0,1.0,1.0,85.53
2019-06-12 12:46:20.887,0.19306871,-0.3696787,0.38954577,0.07203766,-0.5685754,-0.77409065,-0.2784025,-0.22256655,0.34019032,-0.22339012,-0.6788271,0.3574947,0.32618165,0.4899777,0.22845697,0.50536454,-0.050949533,0.27586392,-0.3015677,0.23780122,693.44324,870.7326,856.2271,532.27106,504.06595,0.0224609375,-0.06500244140625,0.988037109375,-0.04486083984375,1.936492919921875,3.117828369140625,1,1.0,1.0,1.0,1.0,85.53
2019-06-12 12:46:20.889,0.19306871,-0.3696787,0.38954577,0.07203766,-0.5685754,-0.77409065,-0.2784025,-0.22256655,0.34019032,-0.22339012,-0.6788271,0.3574947,0.32618165,0.4899777,0.22845697,0.50536454,-0.050949533,0.27586392,-0.3015677,0.23780122,998.46155,821.978,821.978,1063.7362,864.2857,0.0224609375,-0.06500244140625,0.988037109375,-0.04486083984375,1.936492919921875,3.117828369140625,1,1.0,1.0,1.0,1.0,85.53
2019-06-12 12:46:20.890,0.19306871,-0.3696787,0.38954577,0.07203766,-0.5685754,-0.77409065,-0.2784025,-0.22256655,0.34019032,-0.22339012,-0.6788271,0.3574947,0.32618165,0.4899777,0.22845697,0.50536454,-0.050949533,0.27586392,-0.3015677,0.23780122,1005.31134,841.31866,844.94507,1183.8096,1090.7325,0.0224609375,-0.06500244140625,0.988037109375,-0.04486083984375,1.936492919921875,3.117828369140625,1,1.0,1.0,1.0,1.0,85.53
2019-06-12 12:46:20.891,0.19306871,-0.3696787,0.38954577,0.07203766,-0.5685754,-0.77409065,-0.2784025,-0.22256655,0.34019032,-0.22339012,-0.6788271,0.3574947,0.32618165,0.4899777,0.22845697,0.50536454,-0.050949533,0.27586392,-0.3015677,0.23780122,682.96704,877.98535,885.2381,632.6007,759.5238,0.0224609375,-0.06500244140625,0.988037109375,-0.04486083984375,1.936492919921875,3.117828369140625,1,1.0,1.0,1.0,1.0,85.53
2019-06-12 12:46:20.892,0.19306871,-0.3696787,0.38954577,0.07203766,-0.5685754,-0.77409065,-0.2784025,-0.22256655,0.34019032,-0.22339012,-0.6788271,0.3574947,0.32618165,0.4899777,0.22845697,0.50536454,-0.050949533,0.27586392,-0.3015677,0.23780122,649.92676,854.61536,875.16486,473.84616,514.5421,0.0224609375,-0.06500244140625,0.988037109375,-0.04486083984375,1.936492919921875,3.117828369140625,1,1.0,1.0,1.0,1.0,85.53
2019-06-12 12:46:20.893,0.19306871,-0.3696787,0.38954577,0.07203766,-0.5685754,-0.77409065,-0.2784025,-0.22256655,0.34019032,-0.22339012,-0.6788271,0.3574947,0.32618165,0.4899777,0.22845697,0.50536454,-0.050949533,0.27586392,-0.3015677,0.23780122,929.9634,828.022,834.87177,920.293,754.68866,0.0224609375,-0.06500244140625,0.988037109375,-0.04486083984375,1.936492919921875,3.117828369140625,1,1.0,1.0,1.0,1.0,85.53
2019-06-12 12:46:20.931,0.19306871,-0.3696787,0.38954577,0.07203766,-0.5685754,-0.77409065,-0.2784025,-0.22256655,0.34019032,-0.22339012,-0.6788271,0.3574947,0.32618165,0.4899777,0.22845697,0.50536454,-0.050949533,0.27586392,-0.3015677,0.23780122,1064.9451,833.663,830.4396,1247.8755,1114.5055,0.0213623046875,-0.0655517578125,0.9892578125,-0.73272705078125,2.474822998046875,2.519683837890625,1,1.0,1.0,1.0,1.0,85.53
2019-06-12 12:46:20.932,0.19306871,-0.3696787,0.38954577,0.07203766,-0.5685754,-0.77409065,-0.2784025,-0.22256655,0.34019032,-0.22339012,-0.6788271,0.3574947,0.32618165,0.4899777,0.22845697,0.50536454,-0.050949533,0.27586392,-0.3015677,0.23780122,771.2088,876.3736,874.7619,792.1612,888.86444,0.0213623046875,-0.0655517578125,0.9892578125,-0.73272705078125,2.474822998046875,2.519683837890625,1,1.0,1.0,1.0,1.0,85.53
2019-06-12 12:46:20.933,0.19306871,-0.3696787,0.38954577,0.07203766,-0.5685754,-0.77409065,-0.2784025,-0.22256655,0.34019032,-0.22339012,-0.6788271,0.3574947,0.32618165,0.4899777,0.22845697,0.50536454,-0.050949533,0.27586392,-0.3015677,0.23780122,623.73627,877.5824,869.5238,448.0586,538.315,0.0213623046875,-0.0655517578125,0.9892578125,-0.73272705078125,2.474822998046875,2.519683837890625,1,1.0,1.0,1.0,1.0,85.53
2019-06-12 12:46:20.935,0.19306871,-0.3696787,0.38954577,0.07203766,-0.5685754,-0.77409065,-0.2784025,-0.22256655,0.34019032,-0.22339012,-0.6788271,0.3574947,0.32618165,0.4899777,0.22845697,0.50536454,-0.050949533,0.27586392,-0.3015677,0.23780122,839.304,844.94507,836.08057,758.315,654.35895,0.0213623046875,-0.0655517578125,0.9892578125,-0.73272705078125,2.474822998046875,2.519683837890625,1,1.0,1.0,1.0,1.0,85.53
2019-06-12 12:46:20.936,0.19306871,-0.3696787,0.38954577,0.07203766,-0.5685754,-0.77409065,-0.2784025,-0.22256655,0.34019032,-0.22339012,-0.6788271,0.3574947,0.32618165,0.4899777,0.22845697,0.50536454,-0.050949533,0.27586392,-0.3015677,0.23780122,1083.4799,829.2308,823.5897,1243.8462,1052.8572,0.0213623046875,-0.0655517578125,0.9892578125,-0.73272705078125,2.474822998046875,2.519683837890625,1,1.0,1.0,1.0,1.0,85.53
2019-06-12 12:46:20.937,0.19306871,-0.3696787,0.38954577,0.07203766,-0.5685754,-0.77409065,-0.2784025,-0.22256655,0.34019032,-0.22339012,-0.6788271,0.3574947,0.32618165,0.4899777,0.22845697,0.50536454,-0.050949533,0.27586392,-0.3015677,0.23780122,874.35895,880.80585,863.8828,960.18317,977.50916,0.0213623046875,-0.0655517578125,0.9892578125,-0.73272705078125,2.474822998046875,2.519683837890625,1,1.0,1.0,1.0,1.0,85.53
2019-06-12 12:46:20.938,0.19306871,-0.3696787,0.38954577,0.07203766,-0.5685754,-0.77409065,-0.2784025,-0.22256655,0.34019032,-0.22339012,-0.6788271,0.3574947,0.32618165,0.4899777,0.22845697,0.50536454,-0.050949533,0.27586392,-0.3015677,0.23780122,624.1392,896.9231,887.25275,476.26373,569.7436,0.0213623046875,-0.0655517578125,0.9892578125,-0.73272705078125,2.474822998046875,2.519683837890625,1,1.0,1.0,1.0,1.0,85.53
2019-06-12 12:46:20.939,0.19306871,-0.3696787,0.38954577,0.07203766,-0.5685754,-0.77409065,-0.2784025,-0.22256655,0.34019032,-0.22339012,-0.6788271,0.3574947,0.32618165,0.4899777,0.22845697,0.50536454,-0.050949533,0.27586392,-0.3015677,0.23780122,749.45056,851.79486,859.0476,621.7216,548.7912,0.0213623046875,-0.0655517578125,0.9892578125,-0.73272705078125,2.474822998046875,2.519683837890625,1,1.0,1.0,1.0,1.0,85.53
2019-06-12 12:46:20.941,0.19306871,-0.3696787,0.38954577,0.07203766,-0.5685754,-0.77409065,-0.2784025,-0.22256655,0.34019032,-0.22339012,-0.6788271,0.3574947,0.32618165,0.4899777,0.22845697,0.50536454,-0.050949533,0.27586392,-0.3015677,0.23780122,1058.0952,823.1868,833.2601,1169.3041,949.707,0.0213623046875,-0.0655517578125,0.9892578125,-0.73272705078125,2.474822998046875,2.519683837890625,1,1.0,1.0,1.0,1.0,85.53
2019-06-12 12:46:20.942,0.19306871,-0.3696787,0.38954577,0.07203766,-0.5685754,-0.77409065,-0.2784025,-0.22256655,0.34019032,-0.22339012,-0.6788271,0.3574947,0.32618165,0.4899777,0.22845697,0.50536454,-0.050949533,0.27586392,-0.3015677,0.23780122,960.18317,846.9597,864.2857,1098.7913,1044.7986,0.0213623046875,-0.0655517578125,0.9892578125,-0.73272705078125,2.474822998046875,2.519683837890625,1,1.0,1.0,1.0,1.0,85.53
